Sample	2mm tape 
date	07/01/2025
	
Temperature (K)	77.00
Angle (deg.)	90.000000
field / T	0.300000
	
		
Approx. trace time (s)	60.0	
		
Current / A	V1  -sample/ uV	time/s
-0.023275	-2.312038	0.000000
-0.023471	-2.300065	0.046000
-0.022928	-2.279382	0.092000
-0.022468	-2.276166	0.138000
-0.022976	-2.290748	0.183000
-0.023304	-2.326024	0.229000
-0.022928	-2.327478	0.275000
-0.022826	-2.331319	0.321000
-0.023782	-2.368963	0.367000
-0.023268	-2.365425	0.413000
-0.022916	-2.393544	0.458000
-0.023286	-2.433257	0.614000
-0.000351	-2.442847	0.659000
0.060633	-2.511141	0.815000
0.105266	-2.534435	0.861000
0.148830	-2.547848	0.907000
0.195841	-2.563095	0.953000
0.241341	-2.531674	0.999000
0.287841	-2.482624	1.044000
0.333830	-2.404160	1.090000
0.380603	-2.355760	1.136000
0.427178	-2.331329	1.182000
0.471153	-2.255395	1.228000
0.516139	-2.215135	1.273000
0.560907	-2.162051	1.319000
0.608525	-2.102563	1.365000
0.654732	-2.079898	1.411000
0.699633	-2.039144	1.457000
0.746274	-2.027732	1.502000
0.902967	-2.083250	1.548000
0.947915	-2.117942	1.705000
1.103659	-2.145904	1.751000
1.149736	-2.217948	1.906000
1.195474	-2.200620	1.952000
1.240958	-2.204313	1.998000
1.286595	-2.186275	2.044000
1.331620	-2.167737	2.089000
1.377209	-2.137874	2.135000
1.423782	-2.137614	2.181000
1.470207	-2.140964	2.227000
1.515463	-2.114490	2.272000
1.563009	-2.094283	2.318000
1.607749	-2.098698	2.364000
1.652008	-2.105916	2.410000
1.698374	-2.092968	2.456000
1.744302	-2.090862	2.501000
1.790244	-2.107040	2.547000
1.837514	-2.120567	2.593000
2.001924	-2.121091	2.639000
2.048193	-2.126152	2.805000
2.204874	-2.134514	2.851000
2.250644	-2.139648	3.006000
2.296168	-2.163141	3.052000
2.341170	-2.148443	3.098000
2.386754	-2.143424	3.144000
2.432357	-2.149991	3.189000
2.478423	-2.144789	3.235000
2.525055	-2.161542	3.281000
2.570134	-2.156643	3.327000
2.616009	-2.151246	3.372000
2.660871	-2.152899	3.418000
2.706129	-2.148928	3.464000
2.752529	-2.149698	3.510000
2.798558	-2.141336	3.555000
2.845141	-2.135486	3.601000
2.891472	-2.138496	3.646000
2.936555	-2.126823	3.692000
3.103180	-2.063559	3.738000
3.149480	-2.096899	3.905000
3.304972	-2.045217	3.951000
3.349651	-2.080030	4.106000
3.394631	-2.077782	4.152000
3.440848	-2.068135	4.198000
3.486897	-2.057465	4.244000
3.534355	-2.031054	4.290000
3.579471	-2.003464	4.335000
3.624837	-1.992698	4.381000
3.669864	-1.994682	4.427000
3.715259	-1.961035	4.473000
3.761331	-1.951546	4.519000
3.807559	-1.946701	4.565000
3.853831	-1.956402	4.610000
3.900076	-1.951041	4.656000
3.945830	-1.955044	4.702000
3.991975	-1.963156	4.748000
4.036468	-1.934057	4.794000
4.609409	-1.917839	4.840000
4.656197	-1.948442	5.412000
4.702922	-1.934727	5.458000
4.749209	-1.933043	5.504000
4.794973	-1.912017	5.550000
4.839522	-1.892706	5.595000
4.885341	-1.909777	5.641000
4.930222	-1.869509	5.687000
4.976728	-1.862867	5.732000
5.023130	-1.845196	5.778000
5.068660	-1.842309	5.824000
5.114743	-1.821099	5.870000
5.159400	-1.805235	5.915000
5.315519	-1.755435	5.961000
5.361304	-1.733395	6.117000
5.517847	-1.746222	6.163000
5.563470	-1.759881	6.318000
5.609309	-1.753036	6.364000
5.654783	-1.714792	6.410000
5.700329	-1.636882	6.456000
5.746328	-1.581362	6.502000
5.792275	-1.551335	6.548000
5.838351	-1.502925	6.593000
5.884380	-1.508694	6.639000
5.930028	-1.479272	6.685000
5.974417	-1.452061	6.731000
6.020351	-1.445949	6.776000
6.066551	-1.437888	6.822000
6.113419	-1.393243	6.868000
6.159829	-1.382659	6.914000
6.204766	-1.388458	6.959000
6.250231	-1.397185	7.005000
6.404561	-1.422523	7.051000
6.450448	-1.434718	7.206000
6.608119	-1.401108	7.252000
6.653718	-1.406291	7.408000
6.698907	-1.380735	7.453000
6.744069	-1.371613	7.499000
6.789256	-1.373840	7.545000
6.834612	-1.337736	7.591000
6.881490	-1.362629	7.636000
6.927853	-1.337192	7.682000
6.974066	-1.337334	7.727000
7.018892	-1.347535	7.774000
7.063906	-1.356093	7.820000
7.109290	-1.389146	7.865000
7.155115	-1.391659	7.911000
7.201706	-1.413286	7.957000
7.247723	-1.432406	8.002000
7.293269	-1.445100	8.048000
7.339604	-1.440241	8.094000
7.504302	-1.442380	8.140000
7.550776	-1.410203	8.305000
7.705249	-1.398119	8.351000
7.750467	-1.334163	8.506000
7.796349	-1.326074	8.552000
7.842030	-1.340382	8.598000
7.888694	-1.314129	8.644000
7.935271	-1.336839	8.690000
7.980834	-1.353063	8.736000
8.026349	-1.374792	8.781000
8.071136	-1.378417	8.827000
8.117259	-1.386470	8.873000
8.163112	-1.385335	8.919000
8.209246	-1.348754	8.965000
8.255480	-1.363602	9.010000
8.301409	-1.335408	9.056000
8.346468	-1.374772	9.102000
8.391590	-1.359777	9.148000
8.437148	-1.364404	9.193000
8.605021	-1.351416	9.239000
8.650264	-1.351697	9.405000
8.804433	-1.396933	9.451000
8.850270	-1.359178	9.606000
8.896786	-1.334092	9.652000
8.943507	-1.326219	9.698000
8.989143	-1.301759	9.744000
9.034392	-1.331159	9.790000
9.079628	-1.296770	9.836000
9.124407	-1.294602	9.881000
9.170162	-1.263766	9.927000
9.216578	-1.271987	9.973000
9.262767	-1.243047	10.019000
9.308898	-1.222382	10.065000
9.355000	-1.211772	10.111000
9.400405	-1.194259	10.156000
9.446009	-1.199797	10.202000
9.491485	-1.186578	10.248000
9.537751	-1.170958	10.294000
10.110955	-1.490628	10.340000
10.156138	-1.574517	10.912000
10.200805	-1.543091	10.958000
10.245700	-1.513226	11.003000
10.291260	-1.500098	11.049000
10.337501	-1.472946	11.095000
10.384163	-1.450470	11.141000
10.430261	-1.444711	11.187000
10.476523	-1.415341	11.232000
10.521602	-1.371507	11.278000
10.566323	-1.322907	11.324000
10.612216	-1.285600	11.369000
10.658079	-1.218637	11.415000
10.814175	-1.030604	11.461000
10.860983	-1.030206	11.616000
11.013765	-0.974710	11.662000
11.059540	-0.846899	11.817000
11.105390	-0.839227	11.863000
11.151526	-0.787072	11.909000
11.197754	-0.749775	11.955000
11.244411	-0.764352	12.001000
11.290104	-0.730555	12.047000
11.334726	-0.688788	12.093000
11.380015	-0.664050	12.138000
11.425614	-0.629153	12.184000
11.471374	-0.631903	12.230000
11.518281	-0.639974	12.275000
11.564108	-0.647373	12.321000
11.610095	-0.626205	12.367000
11.655617	-0.653961	12.413000
11.700585	-0.676568	12.459000
11.747389	-0.661587	12.505000
11.902960	-0.704012	12.551000
11.949271	-0.689914	12.707000
12.104775	-0.686386	12.752000
12.149652	-0.622505	12.908000
12.195669	-0.617366	12.954000
12.241674	-0.610775	13.000000
12.287835	-0.606535	13.045000
12.334167	-0.621208	13.091000
12.380078	-0.616372	13.137000
12.425613	-0.606040	13.183000
12.470450	-0.586718	13.228000
12.515983	-0.610906	13.274000
12.561807	-0.613440	13.319000
12.607625	-0.602067	13.366000
12.654310	-0.613939	13.412000
12.700292	-0.607917	13.457000
12.746189	-0.588167	13.503000
12.791114	-0.587051	13.549000
12.836158	-0.586748	13.595000
13.003129	-0.621966	13.640000
13.048258	-0.587082	13.806000
13.202861	-0.549741	13.851000
13.248794	-0.556383	14.007000
13.294972	-0.574560	14.052000
13.341853	-0.596854	14.098000
13.387614	-0.600564	14.144000
13.433043	-0.626104	14.190000
13.477665	-0.650241	14.236000
13.523288	-0.685684	14.282000
13.569585	-0.711405	14.327000
13.615731	-0.783151	14.373000
13.662142	-0.788559	14.419000
13.708218	-0.807389	14.465000
13.754590	-0.849206	14.511000
13.799585	-0.857911	14.557000
13.844459	-0.854590	14.602000
13.890214	-0.783599	14.649000
13.935884	-0.745708	14.694000
14.101893	-0.690590	14.740000
14.147679	-0.718624	14.905000
14.303179	-0.744746	14.951000
14.349524	-0.716645	15.107000
14.395899	-0.697354	15.153000
14.441157	-0.686169	15.198000
14.486636	-0.699116	15.244000
14.531749	-0.715883	15.290000
14.578121	-0.741605	15.336000
14.623952	-0.718205	15.381000
14.670480	-0.697586	15.428000
14.716727	-0.685977	15.474000
14.762395	-0.671642	15.519000
14.807414	-0.626509	15.565000
14.852146	-0.603067	15.611000
14.898207	-0.593558	15.657000
14.944518	-0.560073	15.703000
14.990552	-0.572828	15.748000
15.037351	-0.541328	15.794000
15.608708	-0.542992	15.840000
15.653905	-0.627573	16.412000
15.699026	-0.669647	16.458000
15.745485	-0.671188	16.504000
15.790752	-0.689576	16.550000
15.837301	-0.696999	16.596000
15.883705	-0.693573	16.642000
15.929644	-0.687784	16.687000
15.974816	-0.673041	16.734000
16.020305	-0.686209	16.779000
16.066144	-0.696228	16.825000
16.111764	-0.662123	16.871000
16.158465	-0.635765	16.916000
16.315175	-0.624554	16.962000
16.359924	-0.607246	17.118000
16.515172	-0.589859	17.163000
16.560852	-0.598963	17.320000
16.607068	-0.636517	17.366000
16.653320	-0.640418	17.412000
16.699584	-0.622354	17.457000
16.745374	-0.621966	17.503000
16.790883	-0.622404	17.549000
16.836075	-0.592507	17.595000
16.882163	-0.574590	17.641000
16.927933	-0.536330	17.686000
16.974654	-0.522758	17.732000
17.021208	-0.473154	17.778000
17.066650	-0.442328	17.824000
17.111070	-0.389246	17.870000
17.156233	-0.366576	17.915000
17.201963	-0.322409	17.961000
17.247670	-0.313735	18.007000
17.404284	-0.350170	18.053000
17.449918	-0.389161	18.208000
17.603747	-0.414196	18.254000
17.650103	-0.410899	18.409000
17.695466	-0.372569	18.455000
17.742400	-0.351868	18.501000
17.789047	-0.322631	18.546000
17.834869	-0.328755	18.593000
17.880099	-0.279583	18.638000
17.924894	-0.273501	18.684000
17.970774	-0.292802	18.730000
18.016886	-0.305958	18.775000
18.063452	-0.300988	18.821000
18.110061	-0.329404	18.867000
18.156149	-0.353713	18.913000
18.201602	-0.396322	18.959000
18.246153	-0.374625	19.005000
18.291748	-0.402628	19.050000
18.336958	-0.435641	19.096000
18.500725	-0.452736	19.142000
18.546591	-0.420968	19.306000
18.702742	-0.412244	19.352000
18.748879	-0.407839	19.507000
18.795366	-0.394307	19.553000
18.840735	-0.389306	19.599000
18.886490	-0.461859	19.645000
18.932091	-0.461269	19.691000
18.977518	-0.471949	19.736000
19.023522	-0.442736	19.782000
19.070249	-0.420404	19.828000
19.115255	-0.364298	19.874000
19.161387	-0.385164	19.920000
19.206492	-0.377145	19.965000
19.251546	-0.327827	20.011000
19.297468	-0.307142	20.057000
19.344090	-0.278184	20.103000
19.390603	-0.273762	20.149000
19.437086	-0.201418	20.195000
19.600671	-0.077497	20.240000
19.647156	-0.135563	20.406000
19.803363	-0.177533	20.452000
19.849091	-0.296765	20.607000
19.894659	-0.298743	20.653000
19.939237	-0.311779	20.699000
19.985357	-0.318684	20.745000
20.031463	-0.321032	20.790000
20.078025	-0.363033	20.836000
20.125057	-0.311809	20.882000
20.170453	-0.286730	20.928000
20.215424	-0.227892	20.974000
20.260181	-0.198207	21.019000
20.305859	-0.195609	21.065000
20.352015	-0.174116	21.111000
20.398337	-0.130067	21.157000
20.444545	-0.126978	21.202000
20.490081	-0.105148	21.248000
20.535615	-0.087693	21.294000
21.108090	-0.054699	21.339000
21.153517	-0.135236	21.913000
21.199339	-0.145649	21.959000
21.245893	-0.166939	22.004000
21.292074	-0.181455	22.050000
21.338029	-0.194089	22.096000
21.383494	-0.215097	22.142000
21.428511	-0.168398	22.188000
21.474762	-0.175282	22.234000
21.520769	-0.177715	22.280000
21.567156	-0.162835	22.326000
21.613627	-0.188603	22.371000
21.659691	-0.180909	22.417000
21.814213	-0.146855	22.463000
21.859476	-0.095972	22.619000
22.015514	-0.080929	22.665000
22.061826	0.002166	22.820000
22.108643	0.057643	22.866000
22.154170	0.105444	22.912000
22.199287	0.132898	22.958000
22.243914	0.171335	23.004000
22.289208	0.176474	23.049000
22.335451	0.191884	23.095000
22.381834	0.195513	23.141000
22.428383	0.208693	23.186000
22.474266	0.239816	23.232000
22.519067	0.233006	23.278000
22.563996	0.254974	23.324000
22.609843	0.254681	23.369000
22.655592	0.254843	23.415000
22.702405	0.274388	23.461000
22.748835	0.271076	23.506000
22.903526	0.343580	23.552000
22.948080	0.360442	23.708000
23.103586	0.378078	23.754000
23.149971	0.472084	23.909000
23.197105	0.509744	23.955000
23.242865	0.537553	24.001000
23.288144	0.559165	24.047000
23.332700	0.565129	24.093000
23.378553	0.577142	24.138000
23.424742	0.581856	24.184000
23.470903	0.590180	24.230000
23.517328	0.584007	24.276000
23.563239	0.591764	24.321000
23.608953	0.609189	24.367000
23.653950	0.601355	24.413000
23.698644	0.612647	24.459000
23.744551	0.608421	24.505000
23.790871	0.630797	24.551000
23.837505	0.649277	24.596000
24.000963	0.652321	24.642000
24.047235	0.681865	24.806000
24.203369	0.706104	24.852000
24.248455	0.843604	25.007000
24.293595	0.891818	25.053000
24.339118	0.910569	25.099000
24.385044	0.913749	25.145000
24.431559	0.940311	25.191000
24.478471	0.910952	25.237000
24.524399	0.904081	25.283000
24.570015	0.886129	25.328000
24.614802	0.833996	25.374000
24.659662	0.840414	25.419000
24.705271	0.835434	25.465000
24.751257	0.819526	25.511000
24.797640	0.791748	25.557000
24.843623	0.797520	25.602000
24.889524	0.781898	25.648000
24.934079	0.776833	25.694000
25.101171	0.704105	25.739000
25.147489	0.693601	25.906000
25.301915	0.690269	25.952000
25.347662	0.683849	26.107000
25.393576	0.681052	26.153000
25.439337	0.673284	26.199000
25.486233	0.668549	26.245000
25.532428	0.665742	26.291000
25.577706	0.697952	26.336000
25.622505	0.730130	26.382000
25.667522	0.774484	26.427000
25.713511	0.840272	26.473000
25.759656	0.915267	26.519000
25.805961	0.979621	26.565000
25.852394	1.033697	26.611000
25.897417	1.065794	26.656000
25.942642	1.048753	26.702000
25.987903	1.033838	26.748000
26.033074	1.044493	26.793000
26.607416	1.044767	26.839000
26.653592	1.177165	27.413000
26.700396	1.175746	27.459000
26.745824	1.131288	27.504000
26.790736	1.092022	27.550000
26.836041	1.047331	27.596000
26.881992	1.052828	27.642000
26.928247	1.050354	27.688000
26.974253	1.063706	27.734000
27.020997	1.059264	27.779000
27.066543	1.095500	27.825000
27.111916	1.083436	27.871000
27.156891	1.102617	27.917000
27.312206	1.240841	27.963000
27.358801	1.216352	28.118000
27.515305	1.176625	28.164000
27.559948	1.065925	28.319000
27.604898	0.999499	28.365000
27.650211	0.966159	28.411000
27.696805	0.956198	28.457000
27.743064	0.913148	28.502000
27.789441	0.872364	28.548000
27.835605	0.829591	28.594000
27.881445	0.816874	28.640000
27.925799	0.836577	28.686000
27.971497	0.841426	28.731000
28.016887	0.839330	28.777000
28.063679	0.856466	28.823000
28.110183	0.848795	28.869000
28.156299	0.870609	28.914000
28.202231	0.911754	28.960000
28.246937	0.908140	29.006000
28.401699	0.847116	29.052000
28.447748	0.839979	29.207000
28.603926	0.847822	29.253000
28.650027	0.799504	29.408000
28.694788	0.792580	29.454000
28.740104	0.788915	29.500000
28.786016	0.827273	29.546000
28.832019	0.843451	29.592000
28.878552	0.844888	29.638000
28.925175	0.861934	29.683000
28.970325	0.847085	29.729000
29.015563	0.855312	29.775000
29.061180	0.861794	29.821000
29.106791	0.829793	29.866000
29.152920	0.800352	29.912000
29.199361	0.823719	29.958000
29.245875	0.811642	30.004000
29.292054	0.825765	30.050000
29.336340	0.863199	30.095000
29.501887	0.948462	30.141000
29.547785	0.959353	30.306000
29.701934	0.971228	30.352000
29.747758	0.949101	30.508000
29.793726	0.950009	30.553000
29.839677	0.905680	30.599000
29.885978	0.892891	30.645000
29.932073	0.918139	30.691000
29.977910	0.938174	30.736000
30.022866	0.938491	30.782000
30.068208	0.937761	30.828000
30.113028	0.903462	30.874000
30.158946	0.916844	30.919000
30.205784	0.899667	30.965000
30.251681	0.910719	31.011000
30.297446	0.874673	31.057000
30.343551	0.875136	31.103000
30.388068	0.862359	31.148000
30.434213	0.853049	31.194000
30.601292	0.855983	31.240000
30.646603	0.853392	31.406000
30.801070	0.867626	31.452000
30.847241	0.968659	31.607000
30.894212	0.999701	31.653000
30.940834	0.998485	31.699000
30.985984	1.004733	31.745000
31.031641	0.993189	31.790000
31.076374	1.009660	31.836000
31.121437	1.003507	31.882000
31.167282	1.062569	31.928000
31.213331	1.070620	31.974000
31.260120	1.105872	32.020000
31.305567	1.118901	32.065000
31.350635	1.124923	32.111000
31.396351	1.143962	32.157000
31.441601	1.125650	32.202000
31.487686	1.118785	32.248000
31.533881	1.118664	32.294000
32.108087	1.105050	32.340000
32.154522	0.987489	32.913000
32.199701	0.988492	32.959000
32.244353	0.984938	33.005000
32.289985	0.964121	33.051000
32.336032	0.951773	33.097000
32.382790	0.946314	33.142000
32.429048	0.926727	33.188000
32.474761	0.952127	33.234000
32.520769	0.949546	33.280000
32.565883	0.962443	33.326000
32.611273	0.966290	33.372000
32.657070	0.959374	33.418000
32.814412	0.969122	33.463000
32.861027	1.004935	33.620000
33.015687	1.055108	33.665000
33.060436	1.047250	33.821000
33.106348	1.038633	33.867000
33.152296	1.052948	33.913000
33.198362	1.064018	33.958000
33.245158	1.068949	34.004000
33.290755	1.095489	34.050000
33.336706	1.101844	34.096000
33.381585	1.074229	34.142000
33.426649	1.089922	34.187000
33.473049	1.084733	34.233000
33.519419	1.109886	34.279000
33.565673	1.119052	34.325000
33.611739	1.158034	34.371000
33.657198	1.170563	34.417000
33.702512	1.188325	34.463000
33.747982	1.227903	34.508000
33.903726	1.314874	34.554000
33.950399	1.355777	34.710000
34.105716	1.378382	34.755000
34.150657	1.487733	34.911000
34.196293	1.474110	34.957000
34.241852	1.481388	35.003000
34.288148	1.468936	35.048000
34.334487	1.446066	35.094000
34.381061	1.432684	35.140000
34.426835	1.445021	35.185000
34.471203	1.438625	35.231000
34.516455	1.499403	35.277000
34.562164	1.541183	35.323000
34.608138	1.572452	35.369000
34.654776	1.582861	35.415000
34.701284	1.565689	35.461000
34.747304	1.541436	35.506000
34.792744	1.509806	35.552000
34.837662	1.477516	35.598000
35.001173	1.368024	35.644000
35.045845	1.335681	35.806000
35.201231	1.327853	35.852000
35.247505	1.388049	36.008000
35.293959	1.400756	36.053000
35.339994	1.416063	36.099000
35.385607	1.429530	36.145000
35.430333	1.438807	36.191000
35.475823	1.448731	36.237000
35.521720	1.426551	36.282000
35.567333	1.384657	36.328000
35.614048	1.384748	36.374000
35.661048	1.375781	36.420000
35.707114	1.384394	36.465000
35.751467	1.374203	36.511000
35.796426	1.436974	36.557000
35.842235	1.449962	36.603000
35.887706	1.482413	36.649000
35.934525	1.494092	36.695000
36.100092	1.557921	36.740000
36.146650	1.565159	36.907000
36.302251	1.567929	36.952000
36.348275	1.550491	37.108000
36.394268	1.539269	37.154000
36.439432	1.526917	37.199000
36.484368	1.498978	37.245000
36.529701	1.465644	37.291000
36.575951	1.418422	37.337000
36.622963	1.397091	37.382000
36.669421	1.319329	37.428000
36.714895	1.303246	37.474000
36.760727	1.213526	37.520000
36.804876	1.171860	37.566000
36.850804	1.155753	37.612000
36.896893	1.165434	37.657000
36.943059	1.182506	37.703000
36.989997	1.182688	37.749000
37.035556	1.216800	37.795000
37.607375	1.160871	37.840000
37.652342	1.380428	38.413000
37.697571	1.394072	38.459000
37.743802	1.380529	38.505000
37.789734	1.432411	38.551000
37.836576	1.449684	38.596000
37.881490	1.442062	38.642000
37.927179	1.444748	38.688000
37.972062	1.446086	38.734000
38.017756	1.436374	38.779000
38.065086	1.414990	38.825000
38.110829	1.416506	38.871000
38.157475	1.410776	38.917000
38.312896	1.381462	38.963000
38.357518	1.400928	39.119000
38.513323	1.400413	39.164000
38.559597	1.456438	39.320000
38.606251	1.439518	39.366000
38.652628	1.399994	39.412000
38.697515	1.333765	39.457000
38.743324	1.299265	39.503000
38.788314	1.264311	39.549000
38.833685	1.219582	39.595000
38.879862	1.229587	39.641000
38.925925	1.213296	39.687000
38.972606	1.208120	39.732000
39.018311	1.190152	39.778000
39.063516	1.188875	39.824000
39.108368	1.162260	39.870000
39.153962	1.131035	39.916000
39.200174	1.118860	39.961000
39.246651	1.124545	40.007000
39.403475	1.175776	40.053000
39.448941	1.169876	40.209000
39.603171	1.195190	40.255000
39.648577	1.242556	40.410000
39.695577	1.278765	40.456000
39.741819	1.290612	40.502000
39.788158	1.354189	40.547000
