Sample	2mm tape 
date	07/01/2025
	
Temperature (K)	77.00
Angle (deg.)	0.000000
field / T	0.050000
	
		
Approx. trace time (s)	120.0	
		
Current / A	V1  -sample/ uV	time/s
-0.022499	-1.958965	0.000000
-0.023270	-1.963427	0.046000
-0.022660	-1.919863	0.092000
-0.022182	-1.935923	0.268000
-0.022815	-1.943252	0.314000
-0.023270	-1.865504	0.470000
-0.022457	-1.848388	0.515000
-0.022039	-1.842235	0.561000
-0.022636	-1.837925	0.607000
-0.022553	-1.841029	0.653000
-0.021896	-1.841575	0.699000
-0.016915	-1.827351	0.745000
-0.001475	-1.803236	0.791000
0.022461	-1.796359	0.836000
0.046710	-1.805141	0.882000
0.067531	-1.820995	0.928000
0.087235	-1.838667	0.974000
0.108143	-1.875923	1.019000
0.128069	-1.919276	1.065000
0.149363	-1.934241	1.111000
0.170786	-1.924577	1.157000
0.246097	-1.862704	1.202000
0.267115	-1.883317	1.368000
0.339126	-1.929952	1.414000
0.360492	-2.055626	1.569000
0.381218	-2.084658	1.615000
0.401873	-2.114148	1.661000
0.422123	-2.131773	1.707000
0.443208	-2.144091	1.753000
0.465083	-2.169786	1.799000
0.486026	-2.201187	1.844000
0.506996	-2.231539	1.890000
0.527918	-2.250096	1.936000
0.548067	-2.256960	1.982000
0.570285	-2.265415	2.028000
0.590414	-2.282642	2.073000
0.610937	-2.308363	2.119000
0.632082	-2.332925	2.165000
0.654358	-2.354125	2.210000
0.674148	-2.372578	2.256000
0.749438	-2.465067	2.302000
0.770700	-2.486815	2.468000
0.842173	-2.499501	2.514000
0.863782	-2.469824	2.669000
0.884825	-2.438323	2.715000
0.905049	-2.394021	2.761000
0.926191	-2.330220	2.807000
0.948204	-2.295019	2.853000
0.969516	-2.326792	2.899000
0.991122	-2.370256	2.945000
1.011417	-2.359783	2.991000
1.032399	-2.309141	3.037000
1.053516	-2.243144	3.083000
1.073393	-2.184150	3.129000
1.094380	-2.137565	3.174000
1.116501	-2.097849	3.220000
1.136742	-2.083595	3.266000
1.157906	-2.103387	3.312000
1.178928	-2.154418	3.358000
1.254152	-2.365734	3.403000
1.275331	-2.384224	3.568000
1.346719	-2.394545	3.614000
1.367431	-2.438322	3.770000
1.387739	-2.464449	3.815000
1.409907	-2.484072	3.861000
1.430157	-2.494091	3.907000
1.451320	-2.498839	3.953000
1.472908	-2.480222	3.999000
1.493644	-2.432523	4.045000
1.513682	-2.365764	4.091000
1.535297	-2.304925	4.136000
1.556540	-2.244694	4.182000
1.577534	-2.203405	4.228000
1.599077	-2.187015	4.274000
1.619515	-2.179524	4.320000
1.640033	-2.182513	4.365000
1.660932	-2.204207	4.411000
1.682540	-2.235550	4.457000
1.948532	-2.147615	4.503000
1.969181	-2.145887	5.082000
1.989226	-2.108509	5.127000
2.011079	-2.063746	5.174000
2.032634	-2.034850	5.219000
2.053933	-2.037597	5.265000
2.074739	-2.036196	5.311000
2.094341	-2.014635	5.357000
2.115509	-1.979120	5.402000
2.136605	-1.935742	5.448000
2.157421	-1.867867	5.494000
2.178943	-1.781259	5.540000
2.199499	-1.682199	5.585000
2.271923	-1.475767	5.631000
2.292995	-1.442190	5.787000
2.363583	-1.409830	5.833000
2.384568	-1.376018	5.988000
2.407089	-1.376140	6.034000
2.426919	-1.374406	6.080000
2.447247	-1.373405	6.126000
2.468757	-1.374965	6.172000
2.489818	-1.385794	6.218000
2.510297	-1.399428	6.263000
2.532044	-1.406313	6.309000
2.553300	-1.408257	6.355000
2.574346	-1.411940	6.401000
2.594593	-1.428300	6.447000
2.614555	-1.460093	6.492000
2.635695	-1.511150	6.538000
2.657063	-1.568137	6.584000
2.677687	-1.619730	6.630000
2.699595	-1.664709	6.675000
2.771303	-1.801405	6.721000
2.792423	-1.808058	6.877000
2.863752	-1.792291	6.923000
2.884274	-1.668937	7.078000
2.905654	-1.638141	7.124000
2.926883	-1.614755	7.170000
2.947574	-1.597809	7.216000
2.968518	-1.575445	7.261000
2.989220	-1.546159	7.307000
3.010312	-1.504522	7.353000
3.031364	-1.459699	7.399000
3.052323	-1.425493	7.445000
3.074016	-1.406079	7.490000
3.094989	-1.408877	7.536000
3.115678	-1.431383	7.582000
3.136302	-1.463450	7.628000
3.156757	-1.488441	7.673000
3.176754	-1.502119	7.719000
3.198809	-1.498884	7.765000
3.271417	-1.446885	7.810000
3.292137	-1.442069	7.968000
3.362893	-1.445890	8.014000
3.384281	-1.524838	8.170000
3.405247	-1.578317	8.216000
3.426494	-1.628162	8.261000
3.447741	-1.674940	8.307000
3.468805	-1.723664	8.353000
3.489914	-1.773239	8.399000
3.510347	-1.821889	8.445000
3.531538	-1.863061	8.491000
3.551869	-1.899172	8.537000
3.572983	-1.925814	8.582000
3.595270	-1.951172	8.628000
3.615900	-1.974844	8.674000
3.636124	-1.993374	8.720000
3.657385	-2.003554	8.765000
3.677496	-2.013266	8.811000
3.698827	-2.038191	8.856000
3.775621	-2.253952	8.902000
3.796641	-2.321003	9.068000
3.866722	-2.378762	9.114000
3.888587	-2.456125	9.270000
3.909775	-2.437470	9.316000
3.931016	-2.417905	9.361000
3.951599	-2.380211	9.407000
3.971796	-2.320478	9.453000
3.992982	-2.249197	9.499000
4.014181	-2.171587	9.544000
4.034948	-2.078746	9.590000
4.056476	-1.975754	9.635000
4.077392	-1.890929	9.682000
4.098228	-1.839682	9.727000
4.119342	-1.820683	9.773000
4.139787	-1.824161	9.819000
4.160810	-1.836265	9.865000
4.182646	-1.845966	9.910000
4.204030	-1.841812	9.956000
4.469975	-1.679930	10.002000
4.490858	-1.597224	10.582000
4.512781	-1.636015	10.628000
4.533884	-1.666618	10.674000
4.554344	-1.687283	10.720000
4.575547	-1.708714	10.765000
4.595723	-1.721994	10.811000
4.616983	-1.720347	10.857000
4.638144	-1.709490	10.903000
4.659078	-1.710301	10.949000
4.680846	-1.693216	10.994000
4.701722	-1.659889	11.040000
4.721801	-1.637929	11.086000
4.793088	-1.517142	11.132000
4.814555	-1.468134	11.288000
4.886970	-1.434497	11.334000
4.907552	-1.303276	11.489000
4.928360	-1.254533	11.535000
4.948745	-1.218808	11.581000
4.969173	-1.205174	11.627000
4.990248	-1.224922	11.672000
5.011513	-1.276524	11.718000
5.032760	-1.344611	11.764000
5.054292	-1.410195	11.810000
5.075172	-1.459751	11.856000
5.095867	-1.492071	11.901000
5.116888	-1.517803	11.947000
5.136909	-1.533637	11.993000
5.158339	-1.535342	12.039000
5.179405	-1.527413	12.084000
5.200908	-1.514567	12.130000
5.222185	-1.501570	12.176000
5.292890	-1.437456	12.222000
5.313935	-1.396153	12.377000
5.385151	-1.363976	12.423000
5.406594	-1.300172	12.578000
5.427545	-1.310131	12.624000
5.447873	-1.326340	12.670000
5.469125	-1.343831	12.716000
5.489404	-1.353927	12.762000
5.510275	-1.345423	12.807000
5.532007	-1.326179	12.853000
5.553367	-1.321175	12.899000
5.574660	-1.307802	12.945000
5.595552	-1.286603	12.991000
5.616373	-1.282192	13.037000
5.637234	-1.298367	13.083000
5.658150	-1.324889	13.128000
5.679334	-1.358824	13.174000
5.701166	-1.399600	13.220000
5.721737	-1.448494	13.265000
5.793334	-1.661468	13.311000
5.814395	-1.701507	13.469000
5.885827	-1.705645	13.514000
5.907190	-1.596383	13.670000
5.928508	-1.563189	13.716000
5.949331	-1.531965	13.762000
5.969830	-1.514971	13.807000
5.990743	-1.513027	13.853000
6.011111	-1.516333	13.899000
6.032210	-1.521815	13.944000
6.053772	-1.525485	13.990000
6.074594	-1.529114	14.036000
6.095332	-1.524511	14.082000
6.116402	-1.505768	14.127000
6.137011	-1.478485	14.173000
6.157892	-1.447096	14.219000
6.178563	-1.414929	14.265000
6.199867	-1.384698	14.310000
6.221508	-1.354732	14.356000
6.298094	-1.275319	14.402000
6.318115	-1.261690	14.569000
6.390398	-1.257712	14.615000
6.411761	-1.074333	14.770000
6.432212	-1.023766	14.816000
6.452851	-1.009360	14.861000
6.473976	-0.999189	14.907000
6.494798	-1.000134	14.953000
6.515676	-1.019924	14.999000
6.537671	-1.058448	15.045000
6.558684	-1.096537	15.090000
6.579618	-1.108479	15.136000
6.600494	-1.119357	15.182000
6.621595	-1.152296	15.227000
6.642568	-1.217471	15.274000
6.663389	-1.311233	15.320000
6.684641	-1.422489	15.365000
6.705065	-1.525676	15.411000
6.725928	-1.610445	15.457000
6.992693	-1.663987	15.502000
7.013294	-1.597718	16.082000
7.034130	-1.569655	16.128000
7.054594	-1.540046	16.174000
7.075858	-1.512316	16.220000
7.096690	-1.488349	16.266000
7.117713	-1.471925	16.312000
7.139023	-1.466826	16.357000
7.160285	-1.471723	16.403000
7.180800	-1.484499	16.449000
7.201585	-1.502341	16.494000
7.222604	-1.512784	16.540000
7.243150	-1.507066	16.586000
7.315226	-1.466564	16.632000
7.336646	-1.451013	16.789000
7.407583	-1.429914	16.834000
7.428285	-1.317682	16.990000
7.449297	-1.271847	17.036000
7.470138	-1.213576	17.082000
7.490833	-1.168350	17.128000
7.511973	-1.145645	17.173000
7.533724	-1.137871	17.219000
7.554714	-1.134272	17.265000
7.575882	-1.132193	17.311000
7.596051	-1.116298	17.357000
7.617040	-1.092807	17.402000
7.638266	-1.086114	17.448000
7.659581	-1.085761	17.494000
7.680881	-1.055642	17.540000
7.701736	-1.020986	17.585000
7.722091	-1.012480	17.631000
7.742589	-1.028208	17.677000
7.813916	-1.090333	17.723000
7.834839	-1.098606	17.879000
7.906791	-1.123849	17.924000
7.928063	-1.257360	18.080000
7.948747	-1.294188	18.126000
7.969203	-1.334021	18.171000
7.990797	-1.374793	18.217000
8.012307	-1.416084	18.263000
8.033888	-1.456883	18.309000
8.054743	-1.491353	18.354000
8.075140	-1.520831	18.400000
8.096214	-1.544716	18.446000
8.115972	-1.564315	18.492000
8.137234	-1.578640	18.538000
8.158436	-1.591253	18.584000
8.179603	-1.607133	18.630000
8.200759	-1.623107	18.675000
8.221834	-1.636856	18.721000
8.242809	-1.652011	18.767000
8.313695	-1.700232	18.813000
8.335127	-1.733068	18.969000
8.407055	-1.777136	19.015000
8.427993	-1.908071	19.170000
8.448843	-1.927439	19.216000
8.469235	-1.940637	19.261000
8.489874	-1.950460	19.308000
8.510836	-1.958995	19.353000
8.532171	-1.964340	19.399000
8.553499	-1.967778	19.445000
8.574244	-1.967778	19.490000
8.595442	-1.962696	19.536000
8.616224	-1.951990	19.582000
8.637296	-1.938195	19.628000
8.657757	-1.921942	19.673000
8.678898	-1.901544	19.719000
8.699528	-1.880112	19.765000
8.720683	-1.851432	19.810000
8.741705	-1.807721	19.856000
8.817918	-1.581184	19.902000
8.839941	-1.525698	20.069000
8.910474	-1.481272	20.115000
8.931298	-1.379602	20.270000
8.952304	-1.356214	20.316000
8.972855	-1.333690	20.362000
8.993935	-1.299723	20.408000
9.015298	-1.251769	20.454000
9.036419	-1.210214	20.499000
9.057561	-1.182220	20.545000
9.078054	-1.160307	20.591000
9.099396	-1.140950	20.637000
9.119540	-1.140051	20.682000
9.140271	-1.154038	20.728000
9.161277	-1.165375	20.774000
9.182449	-1.170113	20.819000
9.203496	-1.178183	20.865000
9.224608	-1.181046	20.910000
9.244885	-1.170760	20.956000
9.512019	-1.247284	21.002000
9.532775	-1.362629	21.583000
9.553508	-1.370872	21.628000
9.574589	-1.375620	21.674000
9.595238	-1.375006	21.720000
9.616485	-1.367307	21.766000
9.638003	-1.347232	21.812000
9.658381	-1.319949	21.857000
9.679314	-1.288769	21.903000
9.699954	-1.263725	21.949000
9.720369	-1.252703	21.994000
9.741965	-1.257400	22.040000
9.763130	-1.278423	22.086000
9.835258	-1.358774	22.132000
9.855434	-1.364495	22.288000
9.927286	-1.364364	22.334000
9.948028	-1.360110	22.489000
9.968915	-1.357419	22.535000
9.989921	-1.351920	22.581000
10.010932	-1.350282	22.626000
10.032123	-1.347569	22.672000
10.052479	-1.343246	22.718000
10.073151	-1.342292	22.764000
10.094508	-1.324313	22.809000
10.114954	-1.287767	22.856000
10.136395	-1.255798	22.901000
10.157935	-1.231464	22.947000
10.178546	-1.205517	22.993000
10.198761	-1.161857	23.039000
10.219928	-1.097238	23.084000
10.240839	-1.015715	23.130000
10.261838	-0.921755	23.176000
10.334762	-0.666625	23.222000
10.355734	-0.644412	23.378000
10.425731	-0.637193	23.424000
10.446821	-0.639586	23.579000
10.467871	-0.646349	23.625000
10.489015	-0.657540	23.671000
10.510217	-0.667296	23.717000
10.531065	-0.674625	23.762000
10.551750	-0.680188	23.808000
10.572896	-0.681384	23.854000
10.594103	-0.682176	23.900000
10.614913	-0.682126	23.946000
10.635932	-0.692417	23.991000
10.656987	-0.715288	24.037000
10.678523	-0.743733	24.083000
10.698664	-0.768728	24.128000
10.719661	-0.781726	24.174000
10.740285	-0.781736	24.220000
10.761297	-0.770866	24.266000
10.833737	-0.742558	24.312000
10.855620	-0.742358	24.469000
10.926103	-0.741323	24.515000
10.946727	-0.720457	24.670000
10.967707	-0.700474	24.716000
10.988276	-0.688178	24.762000
11.009089	-0.685645	24.808000
11.031103	-0.692721	24.854000
11.052164	-0.706642	24.900000
11.072877	-0.728336	24.945000
11.093474	-0.755638	24.991000
11.114430	-0.789574	25.037000
11.135233	-0.826252	25.083000
11.156233	-0.869306	25.129000
11.177353	-0.911245	25.175000
11.198503	-0.951299	25.220000
11.219794	-0.985850	25.266000
11.240304	-1.008154	25.312000
11.260803	-1.015736	25.357000
11.338289	-0.954541	25.403000
11.359210	-0.961789	25.569000
11.428845	-0.988778	25.615000
11.450082	-1.096638	25.770000
11.470914	-1.115526	25.816000
11.492146	-1.146629	25.862000
11.514652	-1.185180	25.908000
11.535280	-1.226595	25.954000
11.555932	-1.271348	26.000000
11.576602	-1.314476	26.045000
11.597635	-1.350958	26.091000
11.618425	-1.379724	26.137000
11.639491	-1.395178	26.183000
11.660905	-1.390393	26.229000
11.682175	-1.367651	26.274000
11.702690	-1.344249	26.320000
11.723432	-1.332817	26.366000
11.744509	-1.334642	26.412000
11.765353	-1.341522	26.458000
12.030693	-1.386733	26.503000
12.051399	-1.401861	27.083000
12.072228	-1.365670	27.129000
12.093672	-1.330246	27.174000
12.115227	-1.293437	27.220000
12.136043	-1.259941	27.266000
12.156813	-1.231251	27.312000
12.177778	-1.210495	27.358000
12.198742	-1.200058	27.404000
12.220303	-1.195768	27.449000
12.241575	-1.194429	27.495000
12.263029	-1.198177	27.541000
12.283586	-1.211011	27.586000
12.354569	-1.313956	27.632000
12.375830	-1.351294	27.788000
12.446608	-1.387141	27.834000
12.468173	-1.465580	27.990000
12.490152	-1.473651	28.036000
12.510344	-1.478708	28.082000
12.530754	-1.483929	28.128000
12.551503	-1.486402	28.173000
12.572958	-1.489900	28.219000
12.593804	-1.491827	28.265000
12.615267	-1.493033	28.310000
12.637096	-1.493685	28.356000
12.657476	-1.492589	28.402000
12.677869	-1.494362	28.448000
12.698720	-1.491989	28.494000
12.719182	-1.480319	28.539000
12.740615	-1.460285	28.585000
12.761758	-1.432974	28.631000
12.783098	-1.404586	28.677000
12.854330	-1.366264	28.722000
12.874837	-1.352570	28.878000
12.946842	-1.331865	28.924000
12.967452	-1.258615	29.081000
12.988903	-1.262057	29.126000
13.010520	-1.277616	29.172000
13.031369	-1.298836	29.218000
13.052030	-1.315273	29.264000
13.072693	-1.327228	29.310000
13.093681	-1.331552	29.355000
13.114928	-1.321225	29.401000
13.135847	-1.297081	29.447000
13.156503	-1.274618	29.493000
13.177801	-1.269346	29.538000
13.198333	-1.286674	29.584000
13.219523	-1.316986	29.630000
13.239741	-1.348639	29.676000
13.261161	-1.368158	29.722000
13.283244	-1.371695	29.767000
13.355054	-1.365801	29.813000
13.376289	-1.374082	29.970000
13.447088	-1.383876	30.016000
13.467759	-1.353517	30.172000
13.488545	-1.346350	30.218000
13.510157	-1.343165	30.263000
13.531515	-1.332958	30.309000
13.552509	-1.315261	30.355000
13.573298	-1.293205	30.401000
13.593649	-1.270761	30.447000
13.614796	-1.246558	30.492000
13.635613	-1.236292	30.538000
13.656854	-1.238993	30.584000
13.678383	-1.232608	30.630000
13.699490	-1.205038	30.676000
13.720736	-1.157924	30.722000
13.741098	-1.092594	30.767000
13.761373	-1.029097	30.813000
13.782509	-0.982644	30.859000
13.858457	-0.926997	30.905000
13.879208	-0.931361	31.070000
13.950557	-0.940512	31.116000
13.971791	-1.017296	31.272000
13.993341	-1.043921	31.318000
14.014817	-1.067227	31.363000
14.035606	-1.079189	31.409000
14.056470	-1.083783	31.455000
14.077170	-1.080682	31.501000
14.098155	-1.064177	31.547000
14.118713	-1.030162	31.593000
14.140367	-0.983669	31.638000
14.161585	-0.930328	31.684000
14.182449	-0.877395	31.730000
14.202908	-0.839774	31.776000
14.223849	-0.824176	31.821000
14.244767	-0.825067	31.867000
14.265823	-0.845058	31.913000
14.286913	-0.873131	31.959000
14.551697	-0.884002	32.005000
14.573091	-0.899919	32.583000
14.594479	-0.889803	32.629000
14.615655	-0.877087	32.675000
14.636093	-0.862864	32.721000
14.656752	-0.846951	32.767000
14.678016	-0.829744	32.812000
14.699264	-0.816948	32.858000
14.720268	-0.806338	32.904000
14.741959	-0.793539	32.949000
14.762170	-0.767856	32.995000
14.782983	-0.741939	33.041000
14.803928	-0.733824	33.087000
14.874720	-0.805637	33.132000
14.895721	-0.831131	33.288000
14.968323	-0.858281	33.334000
14.988690	-0.971554	33.491000
15.009104	-0.995035	33.537000
15.030556	-1.014428	33.582000
15.051467	-1.029066	33.628000
15.072763	-1.038758	33.674000
15.093753	-1.044648	33.720000
15.114801	-1.050367	33.765000
15.136072	-1.051452	33.811000
15.156751	-1.049200	33.857000
15.177377	-1.042194	33.903000
15.198392	-1.033043	33.949000
15.219088	-1.013222	33.994000
15.239508	-0.996106	34.040000
15.261491	-0.990165	34.086000
15.282682	-0.977567	34.132000
15.303285	-0.945282	34.177000
15.374716	-0.814599	34.223000
15.395436	-0.786504	34.379000
15.466877	-0.765194	34.425000
15.488792	-0.815723	34.581000
15.508769	-0.829896	34.626000
15.529555	-0.809242	34.672000
15.550463	-0.771868	34.718000
15.571428	-0.735393	34.764000
15.591806	-0.709054	34.810000
15.613950	-0.692700	34.856000
15.635693	-0.683444	34.901000
15.656516	-0.675281	34.947000
15.677125	-0.668235	34.993000
15.697200	-0.659912	35.039000
15.718523	-0.649176	35.084000
15.738836	-0.635063	35.130000
15.760267	-0.613034	35.176000
15.781779	-0.573962	35.221000
15.802915	-0.529595	35.267000
15.874446	-0.512341	35.313000
15.895763	-0.517009	35.470000
15.966906	-0.543794	35.516000
15.988357	-0.838056	35.672000
16.009973	-0.938194	35.717000
16.030776	-1.031999	35.764000
16.051426	-1.118963	35.809000
16.072396	-1.198560	35.855000
16.092953	-1.269053	35.901000
16.113965	-1.329864	35.947000
16.135012	-1.388001	35.993000
16.156216	-1.438410	36.038000
16.176937	-1.480718	36.084000
16.198168	-1.514880	36.130000
16.218685	-1.546351	36.176000
16.239489	-1.566006	36.221000
16.260734	-1.577645	36.267000
16.281560	-1.577676	36.313000
16.302941	-1.571604	36.359000
16.379025	-1.496592	36.405000
16.399544	-1.461087	36.570000
16.471637	-1.420991	36.615000
16.493272	-1.271024	36.772000
16.513641	-1.215344	36.818000
16.534423	-1.155905	36.864000
16.554963	-1.095643	36.910000
16.576042	-1.035486	36.956000
16.597256	-0.973836	37.002000
16.618355	-0.911794	37.047000
16.639600	-0.858403	37.093000
16.660405	-0.811176	37.138000
16.681142	-0.762694	37.184000
16.701674	-0.717539	37.230000
16.722894	-0.674136	37.276000
16.743724	-0.648964	37.321000
16.765019	-0.632937	37.368000
16.787037	-0.634033	37.413000
16.807812	-0.664253	37.459000
17.073006	-1.298175	37.505000
17.093659	-1.296058	38.083000
17.113871	-1.254492	38.129000
17.134917	-1.202083	38.175000
17.156049	-1.146810	38.221000
17.176996	-1.096001	38.267000
17.198029	-1.046970	38.312000
17.219134	-0.994738	38.358000
17.240406	-0.947965	38.404000
17.261285	-0.907923	38.450000
17.281958	-0.872066	38.496000
17.302430	-0.838329	38.542000
17.323798	-0.810587	38.587000
17.395540	-0.757473	38.633000
17.417273	-0.732444	38.789000
17.488045	-0.695487	38.834000
17.508647	-0.541022	38.991000
17.529811	-0.495415	39.037000
17.550954	-0.463554	39.082000
17.571353	-0.443449	39.128000
17.592944	-0.437284	39.174000
17.614309	-0.442184	39.220000
17.634993	-0.439986	39.266000
17.655800	-0.430949	39.311000
17.676597	-0.417037	39.357000
17.697573	-0.375946	39.403000
17.718482	-0.321688	39.449000
17.739525	-0.281026	39.495000
17.760414	-0.272965	39.540000
17.781786	-0.295930	39.586000
17.802314	-0.341884	39.632000
17.823301	-0.394121	39.678000
17.895472	-0.457189	39.723000
17.916555	-0.465258	39.879000
17.988038	-0.472939	39.925000
18.008843	-0.436760	40.081000
18.029470	-0.413062	40.127000
18.050386	-0.395860	40.173000
18.071727	-0.385038	40.219000
18.093273	-0.380169	40.264000
18.114418	-0.383753	40.310000
18.136056	-0.392377	40.356000
18.156362	-0.405986	40.402000
18.176859	-0.412039	40.448000
