Sample	2mm tape 
date	07/01/2025
	
Temperature (K)	77.00
Angle (deg.)	0.000000
field / T	0.400000
	
		
Approx. trace time (s)	120.0	
		
Current / A	V1  -sample/ uV	time/s
-0.022314	-2.771071	0.000000
-0.023377	-2.792676	0.046000
-0.022606	-2.815001	0.092000
-0.022087	-2.811841	0.138000
-0.022570	-2.803405	0.184000
-0.022971	-2.787900	0.229000
-0.022869	-2.779814	0.275000
-0.022558	-2.774499	0.321000
-0.022690	-2.649609	0.366000
-0.022881	-2.611645	0.533000
-0.022332	-2.617185	0.579000
-0.020146	-2.526253	0.737000
-0.002645	-2.476904	0.783000
0.027724	-2.445437	0.828000
0.041868	-2.409519	0.874000
0.062301	-2.394685	0.920000
0.083121	-2.393998	0.966000
0.105052	-2.383423	1.011000
0.127322	-2.376771	1.057000
0.147277	-2.383534	1.103000
0.166828	-2.420801	1.149000
0.188691	-2.475503	1.195000
0.209107	-2.523581	1.241000
0.229848	-2.572649	1.287000
0.250545	-2.600712	1.333000
0.273731	-2.608253	1.378000
0.294567	-2.596540	1.424000
0.368278	-2.542765	1.470000
0.390057	-2.538088	1.634000
0.461326	-2.537247	1.679000
0.482961	-2.554066	1.837000
0.502940	-2.560845	1.883000
0.524156	-2.571761	1.929000
0.546354	-2.602598	1.975000
0.565932	-2.604548	2.020000
0.588097	-2.606847	2.066000
0.609203	-2.638868	2.112000
0.629086	-2.666468	2.158000
0.650172	-2.693122	2.204000
0.671882	-2.705569	2.249000
0.691125	-2.701718	2.295000
0.712582	-2.688801	2.341000
0.733416	-2.641530	2.387000
0.755001	-2.584574	2.433000
0.775362	-2.524087	2.478000
0.796473	-2.475301	2.524000
0.872429	-2.234208	2.570000
0.893580	-2.216177	2.734000
0.965597	-2.229318	2.779000
0.986224	-2.281370	2.937000
1.007055	-2.243383	2.983000
1.028247	-2.229126	3.029000
1.049054	-2.224287	3.074000
1.070239	-2.229722	3.120000
1.090301	-2.256012	3.166000
1.111482	-2.277681	3.211000
1.131772	-2.293828	3.257000
1.152642	-2.334027	3.303000
1.174149	-2.393640	3.349000
1.195342	-2.440834	3.394000
1.216852	-2.484584	3.440000
1.238349	-2.523460	3.486000
1.258387	-2.538300	3.532000
1.279759	-2.562880	3.577000
1.299998	-2.575264	3.623000
1.377064	-2.624897	3.669000
1.396427	-2.702153	3.834000
1.468856	-2.767942	3.880000
1.490463	-2.810917	4.037000
1.511147	-2.814467	4.083000
1.532583	-2.820821	4.129000
1.554095	-2.812286	4.175000
1.574247	-2.784549	4.221000
1.595641	-2.755236	4.267000
1.615620	-2.737282	4.312000
1.635982	-2.727591	4.358000
1.658474	-2.718991	4.404000
1.679583	-2.712475	4.450000
1.700246	-2.709890	4.495000
1.721105	-2.716477	4.541000
1.742465	-2.716865	4.587000
1.762241	-2.725017	4.633000
1.783629	-2.739221	4.679000
1.804441	-2.743416	4.725000
2.070748	-2.382591	4.770000
2.092160	-2.223617	5.349000
2.112862	-2.200407	5.395000
2.133996	-2.191495	5.441000
2.154770	-2.197704	5.487000
2.175838	-2.203879	5.533000
2.196567	-2.208476	5.579000
2.217682	-2.213778	5.625000
2.238690	-2.231878	5.670000
2.259996	-2.246421	5.716000
2.281456	-2.256400	5.762000
2.301948	-2.270055	5.807000
2.385264	-2.290405	5.853000
2.406248	-2.270725	6.034000
2.477708	-2.240326	6.080000
2.499457	-2.162987	6.237000
2.519660	-2.141040	6.283000
2.540570	-2.102836	6.329000
2.561224	-2.044969	6.375000
2.583268	-2.005410	6.420000
2.604386	-1.973894	6.466000
2.625125	-1.966937	6.512000
2.646049	-1.986250	6.557000
2.666046	-2.019321	6.603000
2.687120	-2.059545	6.649000
2.707495	-2.105577	6.695000
2.729520	-2.142760	6.740000
2.750008	-2.176047	6.786000
2.771983	-2.191152	6.832000
2.792231	-2.181868	6.878000
2.813339	-2.175189	6.923000
2.890125	-2.162795	6.969000
2.910010	-2.172780	7.134000
2.982104	-2.219771	7.180000
3.004171	-2.323841	7.337000
3.023830	-2.310091	7.383000
3.044764	-2.299143	7.429000
3.066295	-2.291386	7.475000
3.088148	-2.286146	7.520000
3.108222	-2.294116	7.566000
3.129437	-2.301057	7.612000
3.150093	-2.287807	7.658000
3.171806	-2.259156	7.704000
3.191408	-2.204912	7.749000
3.213291	-2.148279	7.795000
3.234748	-2.084288	7.841000
3.255264	-2.026216	7.887000
3.275676	-1.974614	7.933000
3.296908	-1.940711	7.979000
3.317663	-1.917618	8.024000
3.393150	-2.010615	8.069000
3.413867	-2.048129	8.234000
3.484741	-2.065125	8.280000
3.506761	-2.074803	8.437000
3.528357	-2.038745	8.483000
3.549560	-2.009994	8.529000
3.569897	-1.987784	8.574000
3.591720	-1.982197	8.620000
3.611579	-1.975221	8.666000
3.632574	-1.958645	8.712000
3.653239	-1.945133	8.757000
3.675388	-1.914534	8.803000
3.696318	-1.869439	8.849000
3.717394	-1.828054	8.895000
3.737894	-1.801870	8.941000
3.758668	-1.790916	8.986000
3.779169	-1.750059	9.032000
3.800845	-1.711647	9.078000
3.822257	-1.664718	9.124000
3.928092	-1.538667	9.170000
3.999437	-1.527665	9.401000
4.020338	-1.519411	9.557000
4.042078	-1.529926	9.603000
4.062965	-1.570357	9.648000
4.083641	-1.614018	9.694000
4.103874	-1.645818	9.740000
4.124827	-1.674175	9.786000
4.145415	-1.679804	9.832000
4.166708	-1.670092	9.878000
4.189157	-1.652875	9.923000
4.209819	-1.625339	9.969000
4.231474	-1.580129	10.015000
4.252608	-1.547223	10.060000
4.273149	-1.536527	10.106000
4.293959	-1.546522	10.152000
4.315132	-1.565167	10.198000
4.336151	-1.567051	10.244000
4.592332	-1.388527	10.290000
4.614112	-1.353498	10.850000
4.634695	-1.348801	10.895000
4.655897	-1.282732	10.941000
4.676781	-1.225768	10.987000
4.697753	-1.214135	11.033000
4.718796	-1.221982	11.079000
4.740356	-1.229301	11.125000
4.761806	-1.240375	11.171000
4.782317	-1.266589	11.216000
4.803276	-1.320524	11.262000
4.824748	-1.385881	11.308000
4.907302	-1.512632	11.354000
4.927964	-1.551856	11.534000
4.999490	-1.592782	11.580000
5.020163	-1.633454	11.737000
5.042121	-1.655908	11.783000
5.062903	-1.699129	11.829000
5.084967	-1.716622	11.875000
5.105806	-1.735216	11.920000
5.126596	-1.762863	11.966000
5.146980	-1.767176	12.012000
5.166696	-1.770368	12.058000
5.187731	-1.778831	12.104000
5.208739	-1.765408	12.150000
5.230477	-1.740247	12.196000
5.251798	-1.706023	12.241000
5.272656	-1.669079	12.287000
5.294078	-1.634568	12.333000
5.314888	-1.549328	12.379000
5.335882	-1.449214	12.425000
5.410223	-1.519129	12.470000
5.431312	-1.594802	12.634000
5.503132	-1.662864	12.680000
5.524756	-1.777738	12.837000
5.546302	-1.821689	12.883000
5.567127	-1.881079	12.929000
5.588408	-1.921814	12.975000
5.609385	-1.963673	13.021000
5.629893	-2.004206	13.066000
5.650709	-2.029804	13.112000
5.671780	-2.045862	13.158000
5.693504	-2.020176	13.204000
5.714409	-1.971270	13.249000
5.734849	-1.921703	13.295000
5.755746	-1.880735	13.341000
5.776658	-1.857901	13.386000
5.797690	-1.841956	13.432000
5.818879	-1.816783	13.478000
5.839950	-1.785459	13.523000
5.914946	-1.680793	13.569000
5.936252	-1.694422	13.734000
6.008863	-1.706557	13.780000
6.030193	-1.780257	13.937000
6.050925	-1.778191	13.983000
6.071423	-1.745886	14.029000
6.091969	-1.719072	14.075000
6.112646	-1.660506	14.120000
6.134015	-1.611398	14.166000
6.155475	-1.590976	14.212000
6.176582	-1.591991	14.258000
6.197371	-1.607572	14.303000
6.218332	-1.621054	14.349000
6.239412	-1.637507	14.395000
6.259975	-1.655545	14.441000
6.281228	-1.656155	14.486000
6.302409	-1.671766	14.532000
6.323859	-1.686060	14.578000
6.344149	-1.706327	14.623000
6.419481	-1.855947	14.670000
6.440869	-1.840139	14.834000
6.513244	-1.819135	14.880000
6.534278	-1.782878	15.037000
6.555555	-1.762046	15.083000
6.576528	-1.768816	15.129000
6.597160	-1.773820	15.175000
6.618351	-1.803450	15.221000
6.640238	-1.845474	15.267000
6.661297	-1.885894	15.313000
6.681647	-1.902218	15.359000
6.702509	-1.896802	15.405000
6.723579	-1.857073	15.450000
6.744765	-1.789863	15.496000
6.765331	-1.721451	15.542000
6.786479	-1.681190	15.588000
6.808365	-1.660485	15.634000
6.828805	-1.643318	15.679000
6.849686	-1.636100	15.725000
7.115376	-1.715589	15.771000
7.135851	-1.643750	16.350000
7.155845	-1.661175	16.396000
7.176810	-1.669940	16.442000
7.197744	-1.658796	16.487000
7.219647	-1.633933	16.533000
7.240518	-1.626664	16.579000
7.260718	-1.635803	16.624000
7.282549	-1.647894	16.670000
7.303417	-1.661345	16.716000
7.324042	-1.671603	16.762000
7.345137	-1.681734	16.808000
7.366135	-1.663423	16.854000
7.437944	-1.415930	16.899000
7.458789	-1.369592	17.055000
7.529507	-1.330873	17.101000
7.550289	-1.304416	17.256000
7.571500	-1.347380	17.302000
7.592866	-1.390309	17.348000
7.614194	-1.432254	17.394000
7.634615	-1.471125	17.440000
7.655637	-1.520688	17.486000
7.676435	-1.595440	17.531000
7.697476	-1.675480	17.578000
7.718065	-1.750141	17.623000
7.739500	-1.819155	17.669000
7.760934	-1.891623	17.714000
7.781833	-1.965126	17.761000
7.802616	-2.027444	17.806000
7.823301	-2.073447	17.852000
7.843908	-2.095730	17.898000
7.865651	-2.094556	17.944000
7.937436	-2.029280	17.990000
7.958651	-2.007889	18.145000
8.029588	-1.967172	18.191000
8.050653	-1.779153	18.347000
8.071087	-1.737808	18.393000
8.091197	-1.701961	18.439000
8.113437	-1.665131	18.485000
8.134609	-1.629739	18.531000
8.155568	-1.581976	18.576000
8.176303	-1.558798	18.622000
8.196288	-1.542458	18.668000
8.218344	-1.534811	18.714000
8.239134	-1.538451	18.760000
8.260638	-1.549410	18.805000
8.281981	-1.566202	18.851000
8.302859	-1.586171	18.897000
8.322892	-1.607022	18.942000
8.344009	-1.626428	18.988000
8.364923	-1.647965	19.034000
8.436511	-1.558515	19.080000
8.458358	-1.556445	19.235000
8.529541	-1.585332	19.281000
8.550353	-1.578286	19.438000
8.571643	-1.520577	19.483000
8.592292	-1.461696	19.529000
8.613070	-1.420907	19.575000
8.635123	-1.415027	19.621000
8.656249	-1.437595	19.667000
8.676614	-1.493693	19.713000
8.697595	-1.547466	19.759000
8.718489	-1.602365	19.805000
8.739453	-1.630549	19.850000
8.759688	-1.630782	19.896000
8.781030	-1.623685	19.942000
8.802315	-1.629305	19.988000
8.823019	-1.636765	20.033000
8.843906	-1.628706	20.079000
8.865091	-1.608979	20.125000
8.940351	-1.499816	20.170000
8.961017	-1.494698	20.335000
9.032729	-1.483725	20.380000
9.053581	-1.558423	20.538000
9.074729	-1.593494	20.583000
9.096460	-1.622027	20.629000
9.117330	-1.637058	20.675000
9.138003	-1.640146	20.721000
9.158759	-1.648236	20.767000
9.179036	-1.672929	20.813000
9.200213	-1.698630	20.859000
9.221350	-1.722258	20.904000
9.242325	-1.726945	20.950000
9.264191	-1.729712	20.996000
9.285414	-1.752102	21.042000
9.305962	-1.763473	21.087000
9.326618	-1.766653	21.133000
9.347734	-1.772006	21.179000
9.368318	-1.783110	21.225000
9.634180	-1.757107	21.270000
9.655288	-1.930370	21.850000
9.676379	-1.881250	21.896000
9.697232	-1.831673	21.942000
9.718658	-1.786582	21.987000
9.739394	-1.734344	22.033000
9.760028	-1.695616	22.079000
9.780813	-1.676044	22.125000
9.801594	-1.675217	22.170000
9.822317	-1.700716	22.216000
9.843833	-1.705201	22.262000
9.865284	-1.686674	22.307000
9.885602	-1.653236	22.353000
9.956575	-1.486728	22.399000
9.978398	-1.455837	22.554000
10.049781	-1.462535	22.600000
10.070759	-1.490085	22.756000
10.091308	-1.485158	22.802000
10.112239	-1.500523	22.848000
10.132731	-1.532015	22.894000
10.154040	-1.562553	22.940000
10.174598	-1.583163	22.986000
10.195641	-1.577271	23.032000
10.217325	-1.539769	23.078000
10.238540	-1.477026	23.124000
10.260031	-1.405876	23.170000
10.280807	-1.342077	23.215000
10.301473	-1.271202	23.261000
10.322715	-1.205048	23.307000
10.343216	-1.147728	23.353000
10.364301	-1.099797	23.398000
10.385800	-1.065044	23.444000
10.456998	-1.015910	23.490000
10.477701	-1.008450	23.646000
10.548410	-1.017474	23.691000
10.570076	-1.047937	23.847000
10.590967	-1.076946	23.894000
10.612753	-1.119483	23.939000
10.633491	-1.154825	23.985000
10.653796	-1.203060	24.031000
10.675041	-1.238988	24.077000
10.696065	-1.253640	24.122000
10.716849	-1.250682	24.168000
10.738439	-1.219473	24.214000
10.759452	-1.184564	24.260000
10.780677	-1.151347	24.306000
10.801418	-1.117588	24.352000
10.822331	-1.082826	24.397000
10.843091	-1.042354	24.443000
10.864272	-1.007688	24.489000
10.884926	-0.976483	24.535000
10.957433	-0.808737	24.581000
10.978107	-0.796813	24.737000
11.048824	-0.782337	24.783000
11.069621	-0.629822	24.939000
11.090445	-0.564980	24.985000
11.111441	-0.491697	25.031000
11.133030	-0.404696	25.076000
11.153431	-0.336099	25.122000
11.174654	-0.302641	25.168000
11.195547	-0.291382	25.214000
11.216318	-0.295895	25.260000
11.237299	-0.280100	25.306000
11.258711	-0.255706	25.351000
11.280029	-0.213584	25.397000
11.301311	-0.203747	25.443000
11.322355	-0.219373	25.489000
11.342981	-0.276674	25.535000
11.363229	-0.321844	25.580000
11.384776	-0.340044	25.626000
11.459570	-0.308226	25.672000
11.480024	-0.297566	25.835000
11.552267	-0.302972	25.881000
11.573186	-0.316345	26.038000
11.594504	-0.340105	26.084000
11.615815	-0.379973	26.130000
11.636374	-0.416233	26.175000
11.657105	-0.449075	26.221000
11.678268	-0.458340	26.267000
11.698915	-0.449196	26.313000
11.719582	-0.436656	26.358000
11.741511	-0.428597	26.404000
11.762618	-0.420526	26.450000
11.783427	-0.415758	26.496000
11.803877	-0.405028	26.541000
11.824611	-0.395835	26.587000
11.845749	-0.399520	26.633000
11.867094	-0.422332	26.679000
11.888693	-0.456626	26.724000
12.153914	-0.450920	26.770000
12.175284	-0.404897	27.350000
12.195999	-0.389479	27.396000
12.217327	-0.376510	27.442000
12.238282	-0.355250	27.488000
12.258955	-0.331834	27.533000
12.279847	-0.304945	27.580000
12.300636	-0.283992	27.625000
12.322057	-0.254328	27.671000
12.343430	-0.215886	27.717000
12.364942	-0.185357	27.763000
12.386010	-0.145503	27.809000
12.468020	-0.149923	27.854000
12.489418	-0.162108	28.035000
12.561471	-0.177896	28.081000
12.581861	-0.200910	28.238000
12.602874	-0.192829	28.284000
12.623795	-0.202817	28.330000
12.644504	-0.216512	28.375000
12.665906	-0.250396	28.421000
12.687828	-0.289873	28.467000
12.708232	-0.332161	28.513000
12.729248	-0.336970	28.559000
12.750385	-0.303926	28.605000
12.770846	-0.261374	28.651000
12.791967	-0.207996	28.697000
12.813006	-0.132030	28.742000
12.834361	-0.060362	28.788000
12.855734	-0.004852	28.834000
12.876157	0.035350	28.879000
12.896652	0.050148	28.925000
12.972118	-0.150575	28.971000
12.992520	-0.273276	29.135000
13.064659	-0.406728	29.181000
13.086144	-0.814101	29.338000
13.107103	-0.910264	29.384000
13.128174	-1.011267	29.430000
13.149875	-1.093144	29.475000
13.170561	-1.178439	29.521000
13.191194	-1.247829	29.567000
13.211887	-1.315343	29.613000
13.232629	-1.367112	29.659000
13.253670	-1.395613	29.704000
13.275071	-1.384186	29.750000
13.296249	-1.340861	29.796000
13.317660	-1.284830	29.842000
13.337978	-1.221100	29.888000
13.358713	-1.148945	29.934000
13.379541	-1.095192	29.979000
13.400436	-1.061777	30.025000
13.475583	-1.060521	30.071000
13.497394	-1.095894	30.235000
13.569644	-1.123207	30.281000
13.590516	-1.190577	30.438000
13.611692	-1.197785	30.484000
13.633003	-1.192301	30.530000
13.653421	-1.195406	30.576000
13.674602	-1.207517	30.621000
13.695371	-1.215360	30.667000
13.715943	-1.222224	30.713000
13.736889	-1.228076	30.759000
13.758562	-1.243868	30.805000
13.779519	-1.239191	30.851000
13.800891	-1.211604	30.897000
13.821167	-1.173964	30.942000
13.842275	-1.132540	30.988000
13.863514	-1.093356	31.034000
13.883997	-1.068673	31.080000
13.906024	-1.053818	31.126000
13.979488	-0.966681	31.171000
14.000670	-0.916045	31.335000
14.074024	-0.872899	31.381000
14.095212	-0.796712	31.538000
14.116152	-0.778864	31.584000
14.136904	-0.758546	31.630000
14.157543	-0.740725	31.676000
14.178519	-0.732882	31.722000
14.199421	-0.738954	31.767000
14.220476	-0.743722	31.813000
14.241637	-0.746546	31.859000
14.262936	-0.734338	31.905000
14.283008	-0.739857	31.950000
14.303681	-0.760669	31.996000
14.324919	-0.767856	32.042000
14.345821	-0.775683	32.087000
14.367755	-0.788360	32.133000
14.388949	-0.783792	32.179000
14.409446	-0.778537	32.225000
14.675253	-0.769156	32.271000
14.696386	-0.938924	32.850000
14.717267	-1.006940	32.896000
14.737928	-1.061269	32.942000
14.758611	-1.077845	32.988000
14.779388	-1.069727	33.034000
14.800300	-1.035216	33.080000
14.821789	-1.002367	33.126000
14.843669	-0.983136	33.171000
14.864320	-0.947815	33.217000
14.884436	-0.932981	33.263000
14.905265	-0.930511	33.309000
14.926143	-0.928570	33.354000
14.997402	-0.860510	33.400000
15.019410	-0.895798	33.556000
15.090844	-0.939978	33.602000
15.111024	-1.082559	33.758000
15.131543	-1.123873	33.804000
15.152495	-1.155354	33.850000
15.173590	-1.153144	33.895000
15.195196	-1.125443	33.941000
15.215916	-1.076345	33.987000
15.236668	-1.019641	34.033000
15.258062	-0.990037	34.079000
15.278980	-1.002559	34.124000
15.300073	-1.028221	34.170000
15.320684	-1.060147	34.216000
15.342287	-1.069707	34.262000
15.363405	-1.068461	34.307000
15.384246	-1.063106	34.353000
15.404672	-1.059779	34.399000
15.425831	-1.087924	34.445000
15.496997	-1.188178	34.490000
15.518235	-1.238067	34.646000
15.590089	-1.262255	34.692000
15.610837	-1.253343	34.848000
15.631844	-1.224251	34.894000
15.653248	-1.184543	34.940000
15.673774	-1.148197	34.986000
15.694476	-1.109184	35.031000
15.715101	-1.058108	35.077000
15.736531	-1.006259	35.123000
15.756857	-0.963193	35.168000
15.777975	-0.917229	35.214000
15.798740	-0.895879	35.260000
15.819483	-0.892603	35.306000
15.841099	-0.911054	35.351000
15.862436	-0.925450	35.397000
15.883921	-0.950998	35.443000
15.904234	-0.980794	35.488000
15.925340	-1.010509	35.534000
15.996320	-1.072090	35.580000
16.017309	-1.102057	35.736000
16.090246	-1.130677	35.782000
16.111489	-1.075577	35.938000
16.131742	-1.035408	35.984000
16.152545	-1.006653	36.030000
16.173615	-1.014553	36.076000
16.194476	-1.053849	36.122000
16.215329	-1.101043	36.167000
16.236794	-1.148051	36.213000
16.258014	-1.177234	36.259000
16.278562	-1.170471	36.305000
16.298833	-1.143695	36.350000
16.320047	-1.130737	36.396000
16.340861	-1.116686	36.442000
16.362152	-1.112345	36.488000
16.383495	-1.106132	36.533000
16.404382	-1.077531	36.580000
16.425176	-1.011766	36.625000
16.500562	-1.049632	36.671000
16.521643	-1.085602	36.835000
16.593827	-1.135755	36.881000
16.614709	-1.203232	37.038000
16.635522	-1.201655	37.084000
16.656013	-1.187320	37.130000
16.677166	-1.183646	37.176000
16.699002	-1.202587	37.222000
16.720063	-1.234129	37.267000
16.740651	-1.247718	37.313000
16.760822	-1.238333	37.359000
16.781945	-1.217820	37.405000
16.802666	-1.193006	37.450000
16.823659	-1.166888	37.496000
16.845632	-1.137430	37.542000
16.866872	-1.107827	37.587000
16.887416	-1.076824	37.633000
16.908113	-1.052117	37.679000
16.928692	-1.026464	37.725000
17.195062	-1.265046	37.770000
17.215194	-1.395563	38.351000
17.236249	-1.390505	38.396000
17.257697	-1.352597	38.442000
17.278512	-1.303680	38.488000
17.300093	-1.241064	38.534000
17.321916	-1.155178	38.580000
17.342538	-1.084487	38.626000
17.363114	-1.035418	38.672000
17.383727	-1.010570	38.717000
17.404734	-0.987047	38.763000
17.425988	-0.963941	38.809000
17.447167	-0.966529	38.855000
17.518562	-1.026242	38.900000
17.539294	-0.993020	39.056000
17.610312	-0.953471	39.102000
17.630973	-0.780946	39.258000
17.652519	-0.719921	39.304000
17.673998	-0.656231	39.350000
17.694630	-0.576953	39.396000
17.715785	-0.516088	39.441000
17.736033	-0.463460	39.487000
17.757058	-0.419766	39.532000
17.777957	-0.385492	39.578000
17.799185	-0.356113	39.624000
17.820297	-0.337726	39.670000
17.842474	-0.332595	39.715000
17.863280	-0.373880	39.762000
17.883426	-0.455718	39.807000
17.904896	-0.549853	39.853000
17.924919	-0.630907	39.898000
17.946000	-0.704470	39.944000
18.018477	-0.688369	39.990000
18.039109	-0.592393	40.146000
18.110590	-0.488607	40.192000
18.132126	-0.422064	40.348000
18.152641	-0.478213	40.394000
18.173354	-0.545623	40.440000
18.194577	-0.617858	40.486000
18.215953	-0.687389	40.531000
18.236725	-0.727624	40.577000
