Sample	2mm tape 
date	07/01/2025
	
Temperature (K)	77.00
Angle (deg.)	45.000000
field / T	0.300000
	
		
Approx. trace time (s)	60.0	
		
Current / A	V1  -sample/ uV	time/s
-0.022152	-2.080028	0.000000
-0.022348	-2.044526	0.046000
-0.023227	-1.990921	0.092000
-0.022951	-1.984677	0.138000
-0.022432	-1.948567	0.183000
-0.022725	-1.864025	0.229000
-0.022767	-1.858043	0.392000
-0.022587	-1.797134	0.438000
-0.022874	-1.869470	0.594000
-0.022509	-1.912322	0.640000
-0.022914	-1.943864	0.686000
-0.015061	-2.009384	0.732000
0.020995	-2.020625	0.778000
0.055652	-2.032672	0.824000
0.089258	-2.034018	0.870000
0.121278	-2.074737	0.915000
0.155375	-2.112467	0.961000
0.188483	-2.125435	1.007000
0.222668	-2.157927	1.053000
0.258588	-2.147803	1.098000
0.293854	-2.159111	1.144000
0.328578	-2.150851	1.190000
0.362058	-2.143422	1.236000
0.395267	-2.151944	1.281000
0.521002	-2.037827	1.327000
0.554321	-1.974456	1.492000
0.670263	-1.921993	1.538000
0.704980	-1.718619	1.694000
0.738557	-1.684000	1.740000
0.774422	-1.655035	1.786000
0.808034	-1.627632	1.832000
0.843003	-1.571251	1.878000
0.877765	-1.533001	1.924000
0.911651	-1.522427	1.969000
0.945389	-1.487499	2.015000
0.980461	-1.459935	2.061000
1.014152	-1.449573	2.106000
1.048905	-1.457149	2.153000
1.083479	-1.447791	2.198000
1.118180	-1.457189	2.244000
1.151988	-1.455018	2.290000
1.186186	-1.463443	2.336000
1.219910	-1.487419	2.382000
1.344700	-1.478040	2.428000
1.377897	-1.468501	2.593000
1.494846	-1.506468	2.639000
1.529819	-1.567395	2.795000
1.564392	-1.585706	2.840000
1.599601	-1.602315	2.887000
1.633528	-1.625943	2.932000
1.667486	-1.657741	2.978000
1.702187	-1.657792	3.024000
1.736341	-1.646744	3.070000
1.770171	-1.674181	3.116000
1.805032	-1.642465	3.161000
1.840801	-1.633301	3.207000
1.875516	-1.615263	3.253000
1.908851	-1.607052	3.299000
1.942691	-1.585298	3.345000
1.976588	-1.572049	3.390000
2.011341	-1.591303	3.436000
2.046227	-1.607304	3.482000
2.470571	-1.797095	3.528000
2.505322	-1.750459	4.095000
2.539455	-1.739688	4.141000
2.573707	-1.697300	4.187000
2.608622	-1.655775	4.232000
2.644385	-1.652474	4.278000
2.678031	-1.663866	4.324000
2.711984	-1.700199	4.370000
2.746570	-1.702972	4.416000
2.780781	-1.740811	4.462000
2.814806	-1.786234	4.508000
2.850592	-1.853979	4.554000
2.885083	-1.910313	4.600000
3.001423	-2.026537	4.646000
3.035771	-2.030121	4.802000
3.151365	-2.018696	4.847000
3.187039	-2.020321	5.004000
3.221800	-2.008561	5.049000
3.256379	-1.981553	5.095000
3.290810	-1.954852	5.141000
3.324936	-1.976383	5.187000
3.358966	-1.993495	5.233000
3.392466	-1.998758	5.279000
3.427531	-2.024567	5.324000
3.462453	-2.053900	5.370000
3.496381	-2.073289	5.416000
3.531509	-2.100913	5.462000
3.565731	-2.104850	5.508000
3.599604	-2.117183	5.554000
3.634066	-2.079383	5.599000
3.668706	-2.046500	5.645000
3.702680	-2.018394	5.691000
3.820172	-1.924053	5.737000
3.854972	-1.869450	5.893000
3.970182	-1.838192	5.939000
4.005019	-1.680357	6.095000
4.039691	-1.649542	6.141000
4.073550	-1.643468	6.186000
4.108809	-1.630812	6.232000
4.143666	-1.595946	6.278000
4.177349	-1.567703	6.324000
4.211588	-1.543177	6.370000
4.245810	-1.491952	6.415000
4.280503	-1.440806	6.461000
4.314935	-1.417956	6.507000
4.350326	-1.453692	6.553000
4.384865	-1.448428	6.598000
4.419535	-1.484896	6.645000
4.453043	-1.495308	6.690000
4.487098	-1.485718	6.736000
4.521623	-1.475976	6.782000
4.645948	-1.284494	6.828000
4.679401	-1.207134	6.993000
4.796509	-1.146104	7.039000
4.831522	-1.070950	7.195000
4.866440	-1.061138	7.241000
4.900693	-1.049804	7.287000
4.935307	-1.103738	7.333000
4.969168	-1.164082	7.378000
5.003361	-1.237747	7.424000
5.037563	-1.326579	7.470000
5.072201	-1.382140	7.516000
5.106783	-1.439009	7.562000
5.141015	-1.504918	7.608000
5.175762	-1.550719	7.654000
5.210067	-1.569161	7.699000
5.243805	-1.599357	7.745000
5.277792	-1.601342	7.791000
5.312261	-1.631114	7.837000
5.347165	-1.675538	7.882000
5.470000	-1.860688	7.928000
5.504707	-1.867501	8.093000
5.622883	-1.836540	8.139000
5.657566	-1.812464	8.295000
5.692195	-1.804244	8.341000
5.726122	-1.780755	8.387000
5.759620	-1.741295	8.433000
5.794247	-1.738004	8.478000
5.828537	-1.690527	8.524000
5.863422	-1.674756	8.570000
5.898444	-1.655075	8.615000
5.932845	-1.589962	8.662000
5.966028	-1.579684	8.707000
6.000104	-1.578317	8.753000
6.034136	-1.575344	8.798000
6.068889	-1.587957	8.844000
6.103493	-1.621760	8.890000
6.138849	-1.641199	8.936000
6.173430	-1.683461	8.982000
6.598131	-1.919582	9.028000
6.632904	-2.004932	9.595000
6.667357	-1.977126	9.641000
6.702505	-1.961480	9.687000
6.736691	-1.934425	9.733000
6.770662	-1.891507	9.779000
6.803813	-1.846132	9.824000
6.838006	-1.845178	9.870000
6.872861	-1.847428	9.916000
6.907769	-1.801021	9.961000
6.942397	-1.759182	10.007000
6.976759	-1.754164	10.053000
7.010633	-1.716982	10.098000
7.126729	-1.640691	10.145000
7.160788	-1.633010	10.301000
7.278995	-1.620576	10.347000
7.313926	-1.675609	10.503000
7.348100	-1.676113	10.548000
7.381308	-1.694881	10.595000
7.415624	-1.680327	10.640000
7.450179	-1.691077	10.686000
7.484385	-1.722995	10.732000
7.519024	-1.737259	10.778000
7.553856	-1.745318	10.824000
7.588388	-1.750560	10.869000
7.622203	-1.765948	10.915000
7.655850	-1.722112	10.961000
7.690544	-1.705199	11.007000
7.724484	-1.687443	11.053000
7.759133	-1.674027	11.098000
7.794211	-1.683532	11.144000
7.828270	-1.710838	11.190000
7.945695	-1.645735	11.236000
7.979724	-1.614960	11.393000
8.097468	-1.548572	11.439000
8.131950	-1.490411	11.595000
8.167044	-1.481224	11.641000
8.200357	-1.457805	11.687000
8.234679	-1.456376	11.732000
8.268698	-1.437873	11.778000
8.302436	-1.397030	11.824000
8.337068	-1.364663	11.870000
8.371897	-1.374047	11.915000
8.407040	-1.363428	11.961000
8.441420	-1.379179	12.007000
8.475893	-1.364612	12.052000
8.510153	-1.385107	12.098000
8.543852	-1.436893	12.144000
8.577682	-1.479574	12.190000
8.612277	-1.529685	12.236000
8.647438	-1.531800	12.281000
8.769912	-1.522630	12.327000
8.804165	-1.540573	12.493000
8.921651	-1.524971	12.538000
8.956618	-1.529555	12.694000
8.990399	-1.544293	12.740000
9.024020	-1.581194	12.786000
9.058391	-1.578020	12.831000
9.093114	-1.607123	12.877000
9.127021	-1.640479	12.923000
9.162050	-1.656335	12.969000
9.196474	-1.689559	13.015000
9.231078	-1.657425	13.061000
9.264439	-1.696157	13.107000
9.297968	-1.718599	13.153000
9.333069	-1.731890	13.198000
9.367132	-1.747919	13.244000
9.402449	-1.729130	13.290000
9.437238	-1.731054	13.336000
9.471818	-1.735504	13.381000
9.595177	-1.653457	13.427000
9.630007	-1.669198	13.593000
9.746781	-1.650065	13.639000
9.781182	-1.571412	13.795000
9.814913	-1.574951	13.841000
9.848795	-1.570105	13.887000
9.883393	-1.567345	13.933000
9.918623	-1.574829	13.978000
9.953538	-1.572811	14.024000
9.987890	-1.552616	14.070000
10.021986	-1.535980	14.116000
10.055758	-1.499583	14.162000
10.089072	-1.484683	14.208000
10.123268	-1.440024	14.254000
10.157954	-1.393927	14.299000
10.192607	-1.338605	14.345000
10.227156	-1.344069	14.391000
10.262113	-1.344204	14.437000
10.295988	-1.313520	14.482000
10.721405	-1.382827	14.528000
10.756166	-1.530922	15.095000
10.790370	-1.554473	15.141000
10.824651	-1.574148	15.187000
10.858198	-1.537085	15.233000
10.892669	-1.585626	15.279000
10.926970	-1.599563	15.324000
10.962051	-1.587988	15.370000
10.996841	-1.589286	15.416000
11.031240	-1.592651	15.462000
11.064312	-1.571989	15.508000
11.098027	-1.577444	15.553000
11.132174	-1.575082	15.599000
11.250028	-1.549159	15.645000
11.285222	-1.532118	15.801000
11.402246	-1.559642	15.847000
11.435841	-1.499584	16.003000
11.469507	-1.456448	16.048000
11.504051	-1.424796	16.095000
11.538235	-1.396470	16.140000
11.573152	-1.408332	16.186000
11.608183	-1.317345	16.232000
11.642624	-1.302891	16.278000
11.676474	-1.301968	16.324000
11.709830	-1.285497	16.369000
11.744581	-1.274767	16.415000
11.778547	-1.253710	16.460000
11.813333	-1.242686	16.507000
11.848170	-1.220011	16.552000
11.882818	-1.233700	16.598000
11.916885	-1.256960	16.644000
11.950283	-1.287342	16.690000
12.068940	-1.259707	16.736000
12.103435	-1.241694	16.893000
12.221311	-1.212360	16.939000
12.256248	-1.258155	17.095000
12.290392	-1.258654	17.141000
12.323868	-1.253946	17.187000
12.358051	-1.282064	17.232000
12.392752	-1.294029	17.279000
12.426430	-1.289377	17.324000
12.461620	-1.327602	17.370000
12.496318	-1.351553	17.416000
12.530518	-1.381095	17.462000
12.564120	-1.373584	17.507000
12.597366	-1.350126	17.553000
12.632180	-1.305179	17.598000
12.666533	-1.285804	17.645000
12.701595	-1.276561	17.690000
12.736894	-1.257781	17.736000
12.770446	-1.275256	17.782000
12.893854	-1.285153	17.828000
12.929060	-1.335792	17.994000
13.046138	-1.357999	18.039000
13.080045	-1.251980	18.195000
13.113971	-1.241674	18.241000
13.148511	-1.227789	18.287000
13.182564	-1.204333	18.333000
13.217897	-1.167065	18.378000
13.252506	-1.131932	18.424000
13.287295	-1.092869	18.470000
13.321313	-1.038947	18.516000
13.354081	-0.970637	18.562000
13.388643	-0.986734	18.607000
13.423187	-0.993234	18.653000
13.458517	-0.952522	18.698000
13.492883	-1.001961	18.745000
13.526967	-0.988823	18.790000
13.560568	-0.991684	18.836000
13.593597	-0.963611	18.881000
13.719702	-0.890326	18.927000
13.754353	-0.845333	19.094000
13.869847	-0.837828	19.139000
13.904391	-0.780804	19.295000
13.938760	-0.786253	19.341000
13.973788	-0.765096	19.387000
14.008672	-0.747107	19.433000
14.043300	-0.715693	19.479000
14.077260	-0.690068	19.524000
14.110781	-0.656785	19.570000
14.145081	-0.666244	19.616000
14.179785	-0.655477	19.662000
14.214128	-0.656715	19.708000
14.248900	-0.666587	19.754000
14.283365	-0.684885	19.799000
14.317943	-0.685262	19.845000
14.351338	-0.681866	19.891000
14.385638	-0.684011	19.937000
14.419776	-0.741991	19.983000
14.846209	-0.973565	20.029000
14.879706	-1.177240	20.596000
14.913604	-1.183647	20.642000
14.948201	-1.165276	20.688000
14.982130	-1.149335	20.733000
15.016907	-1.111298	20.779000
15.052031	-1.098180	20.825000
15.086493	-1.090538	20.870000
15.120077	-1.090043	20.916000
15.154053	-1.092587	20.962000
15.188359	-1.126758	21.008000
15.222678	-1.106270	21.054000
15.257450	-1.122401	21.100000
15.375398	-1.078576	21.146000
15.409607	-1.072787	21.301000
15.524834	-1.054934	21.347000
15.559772	-1.039452	21.503000
15.593695	-1.034233	21.549000
15.628997	-1.052380	21.595000
15.664251	-1.057791	21.641000
15.698050	-1.073342	21.686000
15.732153	-1.078930	21.732000
15.766184	-1.054540	21.778000
15.799975	-1.075603	21.824000
15.833962	-1.064787	21.870000
15.869074	-1.040608	21.915000
15.904438	-1.028403	21.961000
15.938398	-0.999043	22.007000
15.972618	-0.965070	22.053000
16.006439	-0.951143	22.098000
16.040614	-0.890674	22.144000
16.075319	-0.819559	22.190000
16.193652	-0.725183	22.236000
16.229196	-0.724849	22.394000
16.345675	-0.705942	22.439000
16.379680	-0.645888	22.595000
16.413249	-0.601886	22.641000
16.447519	-0.547994	22.687000
16.482146	-0.487443	22.733000
16.517016	-0.456995	22.779000
16.552296	-0.450060	22.825000
16.586601	-0.427179	22.871000
16.620237	-0.390477	22.917000
16.653985	-0.361643	22.963000
16.688232	-0.327507	23.008000
16.722541	-0.300057	23.054000
16.756868	-0.283774	23.100000
16.792039	-0.271691	23.146000
16.827214	-0.260096	23.191000
16.861319	-0.240316	23.237000
16.895682	-0.219667	23.283000
17.019723	-0.200493	23.329000
17.053845	-0.247312	23.494000
17.169443	-0.296075	23.540000
17.203719	-0.385240	23.695000
17.237862	-0.394675	23.741000
17.273072	-0.429633	23.787000
17.308329	-0.453544	23.833000
17.342215	-0.502570	23.879000
17.375823	-0.533892	23.924000
17.409259	-0.561325	23.970000
17.443383	-0.602758	24.016000
17.478114	-0.637480	24.062000
17.512546	-0.669547	24.107000
17.547759	-0.707089	24.153000
17.581820	-0.730110	24.198000
17.616071	-0.778023	24.245000
17.649761	-0.804392	24.290000
17.683468	-0.865771	24.336000
17.718307	-0.944104	24.382000
17.843396	-1.085318	24.428000
17.877602	-1.051405	24.594000
17.994612	-1.027157	24.640000
18.029366	-0.994147	24.796000
18.064256	-1.015619	24.841000
18.098949	-1.047554	24.887000
18.133156	-1.083300	24.933000
18.166350	-1.118334	24.979000
18.201120	-1.175427	25.025000
18.235455	-1.194428	25.071000
18.269708	-1.252020	25.117000
18.304509	-1.311962	25.162000
18.339259	-1.344416	25.208000
18.373786	-1.417679	25.254000
18.407111	-1.462681	25.300000
18.441241	-1.482482	25.345000
18.475517	-1.495358	25.391000
18.509697	-1.471605	25.437000
18.544853	-1.433416	25.483000
18.969619	-1.264586	25.529000
19.003870	-1.276683	26.096000
19.038402	-1.245207	26.142000
19.074108	-1.240928	26.187000
19.108317	-1.216367	26.233000
19.142138	-1.195759	26.279000
19.176079	-1.182171	26.325000
19.209620	-1.146670	26.371000
19.243694	-1.104964	26.416000
19.278661	-1.059058	26.462000
19.313588	-1.029404	26.508000
19.348170	-0.982296	26.554000
19.382592	-0.967402	26.599000
19.497578	-1.001617	26.645000
19.531714	-1.037373	26.800000
19.649619	-1.040254	26.846000
19.684649	-1.124123	27.002000
19.718647	-1.144449	27.048000
19.753372	-1.145806	27.094000
19.787189	-1.154316	27.140000
19.820839	-1.153231	27.186000
19.855228	-1.175754	27.231000
19.890789	-1.167106	27.277000
19.925101	-1.175073	27.323000
19.960749	-1.187170	27.369000
19.994556	-1.196463	27.415000
20.028132	-1.187331	27.461000
20.061700	-1.186645	27.506000
20.096060	-1.207063	27.552000
20.130983	-1.200188	27.598000
20.165326	-1.196362	27.644000
20.200426	-1.217965	27.690000
20.319287	-1.159384	27.736000
20.353786	-1.138488	27.894000
20.469689	-1.136928	27.940000
20.503529	-1.052071	28.096000
20.538001	-1.043304	28.141000
20.573400	-1.076840	28.187000
20.608293	-1.059213	28.233000
20.642966	-1.041603	28.279000
20.676741	-1.008907	28.325000
20.710929	-0.977622	28.371000
20.744498	-0.942861	28.416000
20.778994	-0.878547	28.462000
20.814208	-0.869274	28.508000
20.849158	-0.874234	28.554000
20.883318	-0.864787	28.599000
20.917623	-0.814437	28.645000
20.951259	-0.756174	28.691000
20.984780	-0.724759	28.737000
21.019817	-0.683507	28.782000
21.143465	-0.542805	28.829000
21.177743	-0.465732	28.994000
21.294316	-0.414600	29.040000
21.329018	-0.514697	29.196000
21.363798	-0.472177	29.241000
21.398298	-0.470679	29.287000
21.431750	-0.476402	29.333000
21.465405	-0.471934	29.379000
21.500123	-0.423802	29.425000
21.534791	-0.390220	29.471000
21.569555	-0.375130	29.516000
21.604687	-0.367565	29.562000
21.639891	-0.358609	29.608000
21.673251	-0.342743	29.654000
21.706875	-0.313385	29.700000
21.741067	-0.267820	29.745000
21.775969	-0.245041	29.791000
21.809609	-0.196066	29.837000
21.844711	-0.225911	29.882000
21.968368	-0.305421	29.928000
22.003347	-0.339527	30.094000
22.121196	-0.354113	30.140000
22.155023	-0.452500	30.296000
22.188784	-0.453216	30.342000
22.222399	-0.480916	30.387000
22.256559	-0.532948	30.433000
22.290849	-0.568683	30.479000
22.325887	-0.594091	30.525000
22.360714	-0.639954	30.571000
22.395075	-0.637106	30.617000
22.429253	-0.631084	30.662000
22.463223	-0.643198	30.708000
22.497190	-0.619475	30.754000
22.531414	-0.583648	30.799000
22.566099	-0.607826	30.845000
22.601174	-0.605680	30.891000
22.635534	-0.623341	30.937000
22.670016	-0.645773	30.983000
23.094260	-0.425289	31.028000
23.129306	-0.379621	31.596000
23.163405	-0.385749	31.641000
23.197462	-0.386677	31.687000
23.231594	-0.408898	31.733000
23.264921	-0.409832	31.779000
23.299379	-0.413776	31.825000
23.333409	-0.419537	31.870000
23.368676	-0.425167	31.916000
23.404062	-0.431292	31.962000
23.438674	-0.421845	32.008000
23.472560	-0.416543	32.054000
23.506172	-0.398652	32.099000
23.622797	-0.304398	32.145000
23.657513	-0.287983	32.301000
23.774833	-0.269360	32.346000
23.809177	-0.231831	32.502000
23.842640	-0.241220	32.548000
23.876916	-0.261858	32.594000
23.910869	-0.250088	32.639000
23.945715	-0.287862	32.685000
23.980345	-0.293591	32.731000
24.015151	-0.322557	32.777000
24.049127	-0.360721	32.823000
24.083019	-0.388351	32.868000
24.116924	-0.458176	32.914000
24.150998	-0.443771	32.960000
24.185349	-0.498093	33.006000
24.220249	-0.509078	33.051000
24.254560	-0.539010	33.097000
24.289045	-0.517258	33.143000
24.323236	-0.530273	33.189000
24.443089	-0.471944	33.235000
24.477019	-0.501989	33.394000
24.593924	-0.495936	33.440000
24.628819	-0.508391	33.596000
24.663732	-0.527240	33.642000
24.698166	-0.510307	33.687000
24.731610	-0.463744	33.733000
24.765208	-0.453645	33.779000
24.799856	-0.456648	33.825000
24.834296	-0.439482	33.871000
24.868946	-0.424628	33.916000
24.904334	-0.417370	33.962000
24.938524	-0.455393	34.008000
24.972162	-0.470962	34.054000
25.006367	-0.496335	34.100000
25.040433	-0.518271	34.145000
25.074158	-0.541952	34.191000
25.109369	-0.554359	34.237000
25.143983	-0.576289	34.282000
25.267397	-0.575244	34.328000
25.301851	-0.561637	34.494000
25.420528	-0.586010	34.540000
25.454418	-0.559340	34.696000
25.488248	-0.559542	34.742000
25.521886	-0.604126	34.787000
25.555624	-0.619757	34.833000
25.590198	-0.652101	34.879000
25.624988	-0.680352	34.924000
25.660699	-0.663019	34.970000
25.694987	-0.660313	35.016000
25.728779	-0.625123	35.062000
25.762789	-0.609390	35.108000
25.797084	-0.559012	35.154000
25.830803	-0.535047	35.199000
25.866172	-0.490755	35.245000
25.900732	-0.471501	35.290000
25.935037	-0.457630	35.336000
25.968910	-0.424578	35.382000
26.093412	-0.294879	35.428000
26.128257	-0.270010	35.594000
26.244590	-0.242658	35.640000
26.278234	-0.154092	35.796000
26.312456	-0.092493	35.841000
26.346646	-0.034655	35.887000
26.381154	-0.010396	35.933000
26.416277	0.016197	35.979000
26.451073	0.021987	36.025000
26.484952	0.040948	36.070000
26.518513	0.068555	36.116000
26.552620	0.109047	36.162000
26.587407	0.111406	36.208000
26.621894	0.105232	36.254000
26.657318	0.133376	36.299000
26.691940	0.112600	36.345000
26.725749	0.148136	36.391000
26.759795	0.144924	36.437000
26.793439	0.133113	36.483000
27.220166	0.018707	36.528000
27.254367	-0.060061	37.096000
27.288182	-0.053045	37.142000
27.321903	-0.037517	37.188000
27.356223	-0.031231	37.233000
27.391234	-0.034735	37.279000
27.425136	-0.057551	37.325000
27.460572	-0.070247	37.370000
27.494821	-0.051881	37.417000
27.528457	-0.025632	37.462000
27.562168	0.028801	37.508000
27.596477	0.059860	37.554000
27.631354	0.053419	37.599000
27.748663	-0.098943	37.645000
27.782772	-0.120849	37.801000
27.898525	-0.195586	37.847000
27.932369	-0.324814	38.002000
27.966831	-0.345394	38.048000
28.001260	-0.398500	38.094000
28.036385	-0.454552	38.140000
28.071030	-0.465982	38.186000
28.105707	-0.467459	38.232000
28.139459	-0.489541	38.278000
28.173915	-0.496384	38.323000
28.207967	-0.486088	38.369000
28.242360	-0.460413	38.415000
28.277615	-0.440464	38.461000
28.312567	-0.425550	38.507000
28.347085	-0.424003	38.552000
28.380683	-0.434275	38.598000
28.414179	-0.446335	38.644000
28.449141	-0.459647	38.690000
28.567890	-0.436941	38.736000
28.601897	-0.421604	38.894000
28.719573	-0.414160	38.940000
28.754159	-0.355801	39.096000
28.787941	-0.339472	39.142000
28.821350	-0.346134	39.188000
28.855496	-0.289099	39.233000
28.890054	-0.279297	39.279000
28.925465	-0.297695	39.325000
28.960046	-0.275627	39.370000
28.994437	-0.246903	39.416000
29.028187	-0.202714	39.462000
29.062592	-0.164756	39.508000
29.096798	-0.115141	39.554000
29.130942	-0.071905	39.599000
29.165821	-0.044352	39.646000
29.200177	-0.020138	39.691000
29.234586	-0.031332	39.737000
29.268796	-0.005996	39.783000
29.393497	0.162157	39.828000
29.427600	0.152637	39.994000
29.544296	0.159734	40.040000
29.578355	0.192094	40.196000
29.613036	0.188863	40.242000
