Sample	2mm tape 
date	07/01/2025
	
Temperature (K)	77.00
Angle (deg.)	0.000000
field / T	0.000000
	
		
Approx. trace time (s)	120.0	
		
Current / A	V1  -sample/ uV	time/s
-0.000519	-1.581419	0.000000
-0.000089	-1.616258	0.118000
-0.000197	-1.652435	0.164000
-0.000489	-1.774017	0.320000
-0.000209	-1.784248	0.366000
0.000108	-1.787359	0.412000
-0.000412	-1.794666	0.458000
-0.000453	-1.788533	0.504000
0.000072	-1.784440	0.550000
0.006373	-1.803857	0.595000
-0.018986	-1.827012	0.641000
-0.022576	-1.875088	0.687000
-0.022236	-1.904161	0.733000
-0.022916	-1.923770	0.778000
-0.023472	-1.942708	0.825000
-0.023077	-1.957133	0.871000
-0.022402	-1.965770	0.916000
-0.022749	-1.965750	0.962000
-0.022999	-1.958103	1.008000
0.243761	-1.972614	1.054000
0.270417	-2.191031	1.617000
0.297865	-2.215364	1.663000
0.324914	-2.232098	1.709000
0.351665	-2.242264	1.755000
0.377822	-2.257507	1.800000
0.403920	-2.283218	1.846000
0.430904	-2.315692	1.892000
0.456972	-2.357117	1.938000
0.483724	-2.403189	1.983000
0.511347	-2.453360	2.029000
0.538526	-2.504535	2.075000
0.564351	-2.539620	2.121000
0.654770	-2.488014	2.167000
0.680613	-2.470086	2.323000
0.773211	-2.451184	2.368000
0.799840	-2.438864	2.525000
0.827002	-2.426932	2.571000
0.853102	-2.410785	2.616000
0.879094	-2.398233	2.662000
0.906501	-2.391318	2.708000
0.932822	-2.382308	2.754000
0.960624	-2.362346	2.800000
0.987121	-2.328567	2.846000
1.013884	-2.287629	2.892000
1.040734	-2.236950	2.937000
1.066494	-2.178424	2.983000
1.093399	-2.112658	3.029000
1.120081	-2.043628	3.075000
1.146532	-1.984097	3.121000
1.173528	-1.949215	3.166000
1.200708	-1.948220	3.212000
1.293740	-2.143945	3.258000
1.320240	-2.226623	3.418000
1.410621	-2.309040	3.464000
1.437497	-2.604842	3.619000
1.464103	-2.679965	3.665000
1.490429	-2.741311	3.711000
1.518613	-2.785990	3.756000
1.545406	-2.812641	3.802000
1.571074	-2.824552	3.848000
1.598111	-2.828610	3.894000
1.624219	-2.835848	3.940000
1.651046	-2.844646	3.986000
1.678579	-2.846796	4.032000
1.706478	-2.839618	4.077000
1.732300	-2.826500	4.123000
1.758348	-2.808099	4.169000
1.785303	-2.788808	4.215000
1.811228	-2.774088	4.260000
1.838241	-2.765347	4.306000
1.936358	-2.738899	4.352000
1.962312	-2.727290	4.518000
2.053228	-2.714334	4.564000
2.080199	-2.556680	4.719000
2.107463	-2.511571	4.765000
2.133805	-2.457367	4.811000
2.159561	-2.403627	4.857000
2.186753	-2.382773	4.903000
2.212900	-2.411674	4.949000
2.239249	-2.501728	4.994000
2.266727	-2.623371	5.040000
2.294487	-2.716342	5.086000
2.320949	-2.786934	5.132000
2.347199	-2.856831	5.178000
2.374254	-2.922562	5.223000
2.401069	-2.977207	5.269000
2.427149	-3.023659	5.315000
2.453643	-3.055030	5.361000
2.481176	-3.065116	5.407000
2.577474	-3.193797	5.453000
2.603866	-3.234560	5.618000
2.695532	-3.237128	5.664000
2.721864	-3.075754	5.820000
2.748680	-3.012917	5.865000
2.775117	-2.979675	5.911000
2.801432	-2.973904	5.957000
2.828527	-2.981324	6.003000
2.855331	-2.986203	6.049000
2.883827	-2.973269	6.095000
2.909196	-2.938962	6.140000
2.936633	-2.887710	6.186000
2.963055	-2.833229	6.232000
2.989248	-2.777455	6.278000
3.015574	-2.714832	6.324000
3.042505	-2.644981	6.369000
3.069525	-2.571104	6.415000
3.096416	-2.499809	6.461000
3.123478	-2.435905	6.507000
3.452015	-2.041884	6.553000
3.479448	-2.297603	7.118000
3.505414	-2.389586	7.163000
3.532949	-2.475026	7.209000
3.558493	-2.551821	7.255000
3.585241	-2.619116	7.301000
3.611741	-2.681692	7.347000
3.638444	-2.737126	7.393000
3.665966	-2.784043	7.438000
3.693391	-2.824563	7.484000
3.719437	-2.856872	7.530000
3.745744	-2.877848	7.576000
3.772863	-2.885938	7.622000
3.863135	-2.857179	7.668000
3.890310	-2.857654	7.823000
3.981294	-2.858506	7.868000
4.008342	-2.781913	8.025000
4.034732	-2.743643	8.071000
4.061196	-2.699615	8.117000
4.087297	-2.615111	8.162000
4.115173	-2.506497	8.208000
4.142444	-2.408281	8.254000
4.169230	-2.346553	8.300000
4.196416	-2.321643	8.346000
4.222890	-2.298840	8.391000
4.249336	-2.276092	8.437000
4.276158	-2.242426	8.483000
4.302885	-2.199554	8.528000
4.329750	-2.155155	8.575000
4.356553	-2.108555	8.620000
4.382753	-2.063679	8.666000
4.409552	-2.025764	8.712000
4.503429	-1.961838	8.758000
4.529766	-1.946202	8.919000
4.619706	-1.961086	8.964000
4.647359	-2.225731	9.120000
4.675041	-2.298497	9.165000
4.702036	-2.344280	9.211000
4.728654	-2.375777	9.257000
4.754885	-2.411675	9.303000
4.781352	-2.463342	9.349000
4.807925	-2.525427	9.395000
4.835255	-2.581371	9.440000
4.862458	-2.613356	9.486000
4.889025	-2.622126	9.532000
4.915195	-2.618623	9.578000
4.941344	-2.605645	9.623000
4.967679	-2.595267	9.669000
4.994586	-2.594102	9.715000
5.021127	-2.604420	9.760000
5.048197	-2.618985	9.806000
5.144252	-2.444694	9.852000
5.171355	-2.423404	10.018000
5.262939	-2.457327	10.064000
5.289606	-2.672114	10.220000
5.316298	-2.708302	10.266000
5.343001	-2.711891	10.311000
5.369152	-2.681334	10.357000
5.395807	-2.645618	10.403000
5.422737	-2.595338	10.449000
5.450308	-2.544145	10.495000
5.476554	-2.501334	10.540000
5.503306	-2.463988	10.586000
5.529995	-2.435458	10.632000
5.555692	-2.416561	10.677000
5.583119	-2.405511	10.723000
5.609642	-2.407702	10.769000
5.637204	-2.423596	10.815000
5.664056	-2.444179	10.861000
5.690566	-2.445870	10.907000
5.787181	-2.388916	10.952000
5.814456	-2.404835	11.118000
5.904555	-2.427074	11.164000
5.931456	-2.472486	11.320000
5.957488	-2.477486	11.366000
5.983544	-2.480137	11.411000
6.011307	-2.460324	11.457000
6.038809	-2.430026	11.503000
6.065641	-2.405970	11.548000
6.091927	-2.394038	11.594000
6.118223	-2.398314	11.640000
6.144744	-2.417030	11.686000
6.171891	-2.442130	11.731000
6.197760	-2.467512	11.777000
6.225327	-2.490495	11.823000
6.252412	-2.510040	11.869000
6.279120	-2.527544	11.915000
6.304990	-2.543123	11.961000
6.331500	-2.558797	12.006000
6.662481	-2.824573	12.052000
6.689291	-2.891238	12.618000
6.715455	-2.889028	12.664000
6.742114	-2.890194	12.709000
6.768920	-2.898883	12.755000
6.795071	-2.912607	12.801000
6.822705	-2.926507	12.847000
6.849620	-2.937969	12.893000
6.876232	-2.940207	12.938000
6.902702	-2.930822	12.984000
6.928819	-2.911251	13.030000
6.955455	-2.881194	13.076000
6.982971	-2.844171	13.122000
7.074388	-2.704562	13.168000
7.101414	-2.669220	13.323000
7.191346	-2.637512	13.369000
7.217505	-2.559643	13.525000
7.243979	-2.531565	13.571000
7.271266	-2.498553	13.617000
7.298418	-2.461765	13.663000
7.325019	-2.425120	13.709000
7.352229	-2.391246	13.754000
7.377857	-2.358867	13.800000
7.404564	-2.329467	13.845000
7.431482	-2.305673	13.891000
7.458370	-2.285938	13.937000
7.485218	-2.274390	13.983000
7.512039	-2.270568	14.029000
7.538671	-2.270009	14.075000
7.564930	-2.269877	14.120000
7.591283	-2.270841	14.166000
7.617520	-2.267404	14.212000
7.711866	-2.235462	14.258000
7.738977	-2.225449	14.418000
7.830160	-2.213676	14.465000
7.857227	-2.181826	14.621000
7.883559	-2.173133	14.667000
7.910362	-2.167613	14.713000
7.936915	-2.163320	14.759000
7.962968	-2.163718	14.804000
7.989870	-2.169212	14.850000
8.017282	-2.180239	14.896000
8.045056	-2.194483	14.942000
8.070975	-2.207944	14.988000
8.097226	-2.224496	15.034000
8.124005	-2.236848	15.080000
8.150034	-2.246347	15.125000
8.176437	-2.253676	15.171000
8.203630	-2.257134	15.217000
8.230726	-2.258859	15.262000
8.258569	-2.260227	15.309000
8.353623	-2.259985	15.354000
8.381241	-2.259254	15.519000
8.472607	-2.258809	15.565000
8.498755	-2.272048	15.721000
8.525647	-2.280543	15.767000
8.551682	-2.295407	15.812000
8.578138	-2.315183	15.858000
8.605455	-2.337821	15.904000
8.633077	-2.363462	15.950000
8.659236	-2.392555	15.996000
8.685574	-2.424459	16.042000
8.712162	-2.458746	16.087000
8.738464	-2.495887	16.133000
8.765189	-2.534892	16.179000
8.792481	-2.574305	16.225000
8.819461	-2.612792	16.271000
8.846180	-2.646611	16.316000
8.872574	-2.675620	16.362000
8.899294	-2.701988	16.408000
8.995979	-2.764852	16.454000
9.022045	-2.779551	16.619000
9.112033	-2.795591	16.665000
9.137913	-2.862115	16.820000
9.165506	-2.888826	16.866000
9.192100	-2.914733	16.912000
9.219805	-2.939154	16.958000
9.245547	-2.961739	17.003000
9.272382	-2.980890	17.049000
9.299036	-2.997936	17.095000
9.325595	-3.015278	17.141000
9.352422	-3.030988	17.187000
9.379763	-3.047833	17.232000
9.407171	-3.071240	17.278000
9.433913	-3.096830	17.324000
9.460216	-3.118626	17.370000
9.486293	-3.130640	17.416000
9.512736	-3.130367	17.461000
9.539497	-3.123613	17.507000
9.868839	-2.967850	17.553000
9.895799	-3.077422	18.118000
9.922692	-3.150042	18.164000
9.948964	-3.179978	18.210000
9.976484	-3.075553	18.255000
10.003659	-2.907688	18.301000
10.030020	-2.782281	18.347000
10.056183	-2.630667	18.393000
10.082385	-2.422450	18.439000
10.109068	-2.269544	18.485000
10.135814	-2.084513	18.531000
10.162929	-1.996498	18.576000
10.189836	-1.906957	18.622000
10.280224	-1.665423	18.668000
10.306705	-1.563980	18.823000
10.398102	-1.447203	18.869000
10.424368	-1.242308	19.025000
10.451824	-1.211004	19.071000
10.479213	-1.177486	19.117000
10.506070	-1.134661	19.163000
10.532147	-1.121573	19.209000
10.558340	-1.118807	19.255000
10.585229	-1.113786	19.300000
10.611590	-1.172286	19.346000
10.638889	-1.190414	19.392000
10.665808	-1.186589	19.438000
10.692808	-1.204799	19.484000
10.719240	-1.225695	19.530000
10.745143	-1.195111	19.575000
10.771830	-1.216926	19.621000
10.798645	-1.232434	19.667000
10.825515	-1.181922	19.713000
10.919232	-1.004398	19.759000
10.946436	-0.982014	19.919000
11.036535	-0.955474	19.965000
11.062854	-0.647117	20.120000
11.089454	-0.588814	20.166000
11.115391	-0.551680	20.212000
11.142260	-0.524631	20.257000
11.169939	-0.516698	20.303000
11.196976	-0.533107	20.349000
11.223296	-0.569735	20.395000
11.248958	-0.606777	20.440000
11.275525	-0.636149	20.486000
11.302375	-0.662456	20.531000
11.329293	-0.686677	20.577000
11.356528	-0.708947	20.623000
11.383744	-0.738973	20.669000
11.410540	-0.777298	20.715000
11.436719	-0.825547	20.760000
11.463140	-0.880694	20.806000
11.561128	-1.086141	20.852000
11.587465	-1.148531	21.019000
11.677864	-1.201559	21.065000
11.705001	-1.324325	21.221000
11.731666	-1.356405	21.267000
11.758477	-1.385051	21.313000
11.785963	-1.409878	21.359000
11.812810	-1.429911	21.404000
11.838555	-1.446230	21.450000
11.865341	-1.456966	21.496000
11.891941	-1.460690	21.542000
11.918570	-1.457848	21.588000
11.944958	-1.451726	21.634000
11.972479	-1.443878	21.679000
11.999587	-1.437796	21.725000
12.026451	-1.432098	21.771000
12.052632	-1.426515	21.817000
12.078615	-1.416557	21.863000
12.105563	-1.400965	21.909000
12.202222	-1.315454	21.955000
12.228646	-1.295818	22.119000
12.319975	-1.271747	22.165000
12.346627	-1.167921	22.321000
12.374170	-1.153811	22.367000
12.401087	-1.150516	22.413000
12.426978	-1.147149	22.459000
12.453582	-1.141636	22.505000
12.479932	-1.129145	22.550000
12.506346	-1.111091	22.596000
12.533391	-1.075850	22.642000
12.560455	-1.020793	22.687000
12.587246	-0.954878	22.733000
12.614331	-0.892792	22.779000
12.640836	-0.840375	22.825000
12.667267	-0.798325	22.871000
12.693664	-0.770413	22.917000
12.720098	-0.759108	22.962000
12.747600	-0.758246	23.008000
13.076381	-0.757934	23.054000
13.103179	-0.693875	23.618000
13.130538	-0.696439	23.664000
13.157977	-0.721560	23.710000
13.184857	-0.760483	23.756000
13.210679	-0.798204	23.802000
13.236419	-0.830335	23.847000
13.263461	-0.854658	23.893000
13.290378	-0.873790	23.939000
13.317248	-0.890221	23.985000
13.344375	-0.908300	24.031000
13.370509	-0.927659	24.077000
13.397587	-0.947004	24.122000
13.487892	-1.003621	24.168000
13.514766	-1.012853	24.324000
13.606107	-1.017507	24.369000
13.633622	-1.009295	24.526000
13.660163	-1.005983	24.572000
13.686381	-1.002395	24.617000
13.712273	-1.002395	24.663000
13.739807	-1.004298	24.709000
13.765969	-1.005504	24.754000
13.793324	-1.004419	24.801000
13.820096	-0.999765	24.847000
13.847196	-0.990064	24.892000
13.873301	-0.976805	24.938000
13.899966	-0.964364	24.984000
13.926537	-0.953062	25.030000
13.953094	-0.944221	25.076000
13.980090	-0.934216	25.121000
14.007266	-0.921474	25.167000
14.034295	-0.907190	25.213000
14.128602	-0.840415	25.259000
14.154807	-0.837230	25.419000
14.244671	-0.849405	25.465000
14.272023	-0.995814	25.621000
14.298356	-1.043848	25.667000
14.325159	-1.087857	25.713000
14.352786	-1.126268	25.759000
14.379457	-1.162633	25.804000
14.405336	-1.200933	25.850000
14.431977	-1.240423	25.896000
14.458379	-1.277149	25.942000
14.485237	-1.305716	25.988000
14.511851	-1.319970	26.033000
14.538952	-1.324254	26.079000
14.565917	-1.330257	26.125000
14.592050	-1.324274	26.171000
14.618926	-1.299976	26.216000
14.644827	-1.272942	26.262000
14.671990	-1.250448	26.308000
14.768358	-1.196761	26.354000
14.795035	-1.183672	26.519000
14.885982	-1.177942	26.565000
14.913326	-1.164398	26.721000
14.940530	-1.151752	26.767000
14.968132	-1.142530	26.813000
14.993486	-1.134102	26.859000
15.019907	-1.125273	26.905000
15.046476	-1.116839	26.950000
15.073120	-1.110444	26.996000
15.099715	-1.097547	27.042000
15.126592	-1.082442	27.088000
15.153503	-1.074088	27.134000
15.180255	-1.067376	27.180000
15.206729	-1.056620	27.225000
15.232339	-1.042834	27.271000
15.259183	-1.024799	27.317000
15.286110	-1.006033	27.363000
15.313625	-0.988929	27.408000
15.409542	-1.018844	27.454000
15.436406	-1.052990	27.619000
15.528166	-1.090003	27.665000
15.554724	-1.170299	27.821000
15.580936	-1.188636	27.867000
15.607565	-1.215863	27.913000
15.633833	-1.229651	27.959000
15.660469	-1.220105	28.004000
15.687244	-1.215549	28.050000
15.714610	-1.211220	28.096000
15.741211	-1.191669	28.142000
15.768014	-1.172718	28.188000
15.794566	-1.164397	28.234000
15.820607	-1.167539	28.280000
15.847381	-1.176413	28.325000
15.874181	-1.185606	28.371000
15.902288	-1.197753	28.417000
15.929442	-1.202723	28.463000
15.955956	-1.190495	28.509000
16.283479	-0.996166	28.554000
16.311651	-0.869974	29.118000
16.338372	-0.849153	29.164000
16.364638	-0.846164	29.210000
16.390542	-0.862433	29.256000
16.417114	-0.889248	29.302000
16.444413	-0.920562	29.348000
16.471455	-0.947945	29.394000
16.498647	-0.968734	29.439000
16.525108	-0.980767	29.485000
16.551031	-0.982229	29.531000
16.577759	-0.974452	29.576000
16.605372	-0.962854	29.623000
16.695960	-0.978925	29.668000
16.722792	-0.989660	29.824000
16.812785	-0.996006	29.869000
16.839122	-1.080514	30.025000
16.866340	-1.127565	30.071000
16.892860	-1.175452	30.116000
16.919831	-1.216664	30.162000
16.947049	-1.249868	30.208000
16.973836	-1.269328	30.254000
17.000259	-1.273445	30.300000
17.026857	-1.264142	30.345000
17.052564	-1.252604	30.391000
17.079796	-1.241840	30.437000
17.106010	-1.234889	30.483000
17.133611	-1.235534	30.529000
17.160258	-1.246093	30.575000
17.187257	-1.264469	30.621000
17.213656	-1.284835	30.666000
17.240119	-1.304940	30.712000
17.334372	-1.350885	30.758000
17.361416	-1.366394	30.919000
17.451743	-1.380326	30.965000
17.479265	-1.373930	31.120000
17.505775	-1.360820	31.166000
17.532417	-1.335700	31.212000
17.558487	-1.305907	31.258000
17.584144	-1.280853	31.304000
17.611574	-1.263759	31.350000
17.637777	-1.251254	31.395000
17.666182	-1.247286	31.441000
17.692888	-1.249434	31.487000
17.719427	-1.258249	31.533000
17.745841	-1.273586	31.578000
17.772379	-1.300036	31.624000
17.798593	-1.331944	31.670000
17.825825	-1.359469	31.716000
17.852450	-1.381653	31.762000
17.879661	-1.406178	31.807000
17.976121	-1.503956	31.853000
18.002722	-1.537330	32.019000
18.094080	-1.573938	32.065000
18.121087	-1.653035	32.221000
18.146988	-1.646826	32.266000
18.172735	-1.627724	32.312000
18.199929	-1.553592	32.358000
18.227186	-1.362054	32.404000
18.254750	-1.077202	32.449000
18.281493	-0.850307	32.495000
18.307795	-0.675921	32.541000
18.334455	-0.538340	32.587000
18.360751	-0.325382	32.632000
18.386969	-0.011529	32.678000
18.413493	0.407988	32.724000
18.440640	0.843683	32.770000
18.467926	1.284997	32.816000
18.494422	1.623283	32.861000
18.520489	1.967172	32.907000
18.618249	2.184466	32.953000
18.645669	2.066981	33.119000
18.736230	1.977453	33.165000
18.762562	2.224515	33.322000
18.789012	2.424224	33.368000
18.815954	2.656920	33.413000
18.842852	2.751000	33.459000
18.870420	2.761817	33.505000
18.897787	2.759772	33.551000
18.924175	2.777717	33.597000
18.950616	2.785631	33.643000
18.976870	2.801449	33.688000
19.002896	2.793358	33.734000
19.029510	2.787115	33.780000
19.056703	2.791920	33.826000
19.083747	2.781759	33.872000
19.110299	2.770211	33.918000
19.136813	2.767465	33.963000
19.162691	2.823800	34.009000
19.492571	2.992178	34.055000
19.519090	2.666446	34.619000
19.545652	2.555551	34.664000
19.571645	2.438499	34.710000
19.598791	2.325893	34.756000
19.625998	2.267993	34.802000
19.653616	2.260241	34.847000
19.680126	2.321068	34.893000
19.706297	2.379250	34.939000
19.732859	2.391995	34.985000
19.758914	2.385363	35.031000
19.785894	2.414967	35.076000
19.812802	2.409178	35.122000
19.905345	2.373421	35.168000
19.931192	2.375055	35.324000
20.021698	2.351706	35.370000
20.048152	2.283148	35.526000
20.075128	2.269096	35.572000
20.102182	2.275741	35.618000
20.129667	2.273432	35.663000
20.155778	2.273976	35.709000
20.182409	2.264167	35.755000
20.208780	2.229223	35.801000
20.235455	2.176426	35.846000
20.262094	2.117744	35.892000
20.288836	2.047194	35.938000
20.316433	1.967727	35.983000
20.343398	1.883361	36.030000
20.370006	1.795624	36.076000
20.395872	1.714503	36.122000
20.422555	1.658732	36.167000
20.449076	1.603866	36.213000
20.542864	1.418322	36.259000
20.569543	1.375520	36.420000
20.661975	1.324295	36.465000
20.688904	1.096590	36.622000
20.714978	1.025865	36.668000
20.741372	0.959319	36.713000
20.768455	0.893792	36.759000
20.794851	0.833164	36.805000
20.822191	0.780153	36.851000
20.849131	0.738070	36.897000
20.875462	0.705730	36.942000
20.902193	0.677667	36.988000
20.928480	0.642212	37.034000
20.955078	0.600080	37.080000
20.981321	0.560201	37.126000
21.008128	0.530036	37.171000
21.035499	0.501981	37.217000
21.062971	0.474478	37.263000
21.088513	0.450607	37.309000
21.184721	0.391656	37.354000
21.211815	0.378994	37.520000
21.302877	0.369529	37.566000
21.328621	0.366671	37.722000
21.355444	0.370622	37.767000
21.382000	0.367916	37.813000
21.409247	0.359101	37.859000
21.436370	0.347366	37.905000
21.462570	0.341268	37.951000
21.489168	0.344609	37.996000
21.515505	0.358430	38.042000
21.541894	0.375471	38.087000
21.568510	0.393228	38.134000
21.596057	0.415975	38.179000
21.623519	0.442548	38.225000
21.650031	0.473091	38.271000
21.676931	0.504079	38.317000
21.703387	0.532817	38.362000
21.729325	0.555669	38.408000
21.826808	0.569138	38.454000
21.853545	0.556325	38.620000
21.943922	0.546949	38.666000
21.970566	0.489562	38.822000
21.997671	0.460162	38.868000
22.024828	0.432638	38.913000
22.051603	0.409503	38.959000
22.078399	0.389327	39.005000
22.104715	0.370683	39.051000
22.131181	0.350208	39.097000
22.157804	0.327399	39.143000
22.184483	0.302836	39.188000
22.211550	0.275615	39.234000
22.238947	0.251636	39.280000
22.265209	0.230223	39.326000
22.291844	0.209573	39.371000
22.318365	0.193921	39.417000
22.344543	0.183841	39.463000
22.371610	0.174973	39.509000
22.700494	0.178298	39.555000
22.726618	0.197051	40.118000
22.753180	0.196880	40.165000
22.780479	0.198585	40.210000
22.807715	0.202770	40.256000
22.834668	0.212859	40.302000
22.860529	0.229047	40.348000
22.887246	0.245931	40.394000
22.914231	0.253856	40.440000
22.940861	0.253634	40.485000
22.967780	0.251565	40.531000
22.994961	0.259929	40.577000
23.021495	0.270932	40.622000
23.111914	0.248647	40.668000
23.138572	0.251182	40.824000
