Sample	2mm tape 
date	07/01/2025
	
Temperature (K)	77.00
Angle (deg.)	90.000000
field / T	0.050000
	
		
Approx. trace time (s)	60.0	
		
Current / A	V1  -sample/ uV	time/s
-0.022062	-2.291405	0.000000
-0.022163	-2.260899	0.146000
-0.022295	-2.224823	0.192000
-0.021901	-2.133401	0.347000
-0.021966	-2.122167	0.394000
-0.022969	-2.106416	0.439000
-0.022414	-2.089032	0.485000
-0.021757	-2.070424	0.531000
-0.021978	-2.051932	0.577000
-0.022432	-2.044336	0.623000
-0.022133	-2.038687	0.668000
-0.022038	-2.034598	0.714000
0.025824	-2.028179	0.760000
0.090604	-2.011117	0.806000
0.155022	-2.001355	0.851000
0.218858	-1.997227	0.897000
0.283521	-1.995354	0.943000
0.349707	-2.001568	0.989000
0.415847	-1.997217	1.034000
0.648838	-1.968325	1.080000
0.714248	-1.942860	1.246000
0.937174	-1.922918	1.291000
1.001232	-1.903929	1.448000
1.065239	-1.958513	1.493000
1.129041	-2.020131	1.539000
1.192591	-2.097958	1.584000
1.258231	-2.186608	1.630000
1.324106	-2.233976	1.676000
1.389106	-2.249017	1.722000
1.453835	-2.253569	1.767000
1.517439	-2.236448	1.813000
1.581893	-2.210076	1.858000
1.646049	-2.198796	1.904000
1.711202	-2.213931	1.950000
1.776881	-2.244336	1.996000
1.842165	-2.283812	2.042000
1.907562	-2.327130	2.087000
1.972015	-2.367696	2.133000
2.208172	-2.465295	2.179000
2.274441	-2.470668	2.346000
2.493803	-2.470577	2.392000
2.557577	-2.506709	2.548000
2.621899	-2.497687	2.593000
2.686926	-2.407587	2.639000
2.753270	-2.332344	2.685000
2.819096	-2.311987	2.731000
2.884673	-2.321972	2.776000
2.949390	-2.325834	2.822000
3.013275	-2.341894	2.868000
3.077114	-2.416742	2.914000
3.142280	-2.465164	2.960000
3.207393	-2.514859	3.006000
3.272883	-2.541199	3.052000
3.338538	-2.552414	3.098000
3.403555	-2.557972	3.143000
3.467776	-2.552842	3.189000
3.531442	-2.523473	3.235000
4.341188	-2.365097	3.280000
4.407260	-2.537228	3.851000
4.472385	-2.588848	3.897000
4.537580	-2.645111	3.943000
4.601558	-2.704489	3.989000
4.664730	-2.744525	4.035000
4.729818	-2.766951	4.081000
4.795004	-2.769455	4.126000
4.860832	-2.761080	4.172000
4.925734	-2.743187	4.218000
4.991513	-2.726102	4.263000
5.055493	-2.724735	4.309000
5.118835	-2.723902	4.355000
5.339869	-2.635686	4.401000
5.405158	-2.619320	4.556000
5.627021	-2.614326	4.602000
5.691900	-2.570748	4.758000
5.755409	-2.533583	4.804000
5.819775	-2.455142	4.849000
5.884760	-2.361987	4.895000
5.950817	-2.286356	4.941000
6.016317	-2.239666	4.987000
6.081795	-2.198564	5.033000
6.146638	-2.153616	5.079000
6.210499	-2.089030	5.125000
6.274091	-2.020252	5.170000
6.339195	-1.966542	5.216000
6.404914	-1.948589	5.262000
6.470916	-1.942584	5.308000
6.535992	-1.944642	5.353000
6.601216	-1.964211	5.399000
6.665343	-2.003878	5.445000
6.884296	-2.189048	5.491000
6.950148	-2.234825	5.646000
7.171699	-2.248592	5.692000
7.236817	-2.208649	5.848000
7.300553	-2.202218	5.894000
7.363963	-2.160803	5.939000
7.428932	-2.093619	5.985000
7.493609	-2.015901	6.031000
7.560169	-1.959537	6.077000
7.625215	-1.914807	6.123000
7.690857	-1.868183	6.168000
7.755350	-1.813318	6.214000
7.818912	-1.746754	6.260000
7.882906	-1.675758	6.306000
7.947324	-1.641239	6.352000
8.012568	-1.631043	6.397000
8.077908	-1.635922	6.443000
8.143245	-1.637177	6.488000
8.207286	-1.627898	6.534000
8.443643	-1.669836	6.580000
8.509227	-1.676621	6.746000
8.729131	-1.671030	6.792000
8.792997	-1.710918	6.948000
8.857690	-1.740010	6.994000
8.921938	-1.760407	7.040000
8.987838	-1.756411	7.085000
9.053067	-1.729249	7.131000
9.117910	-1.681318	7.177000
9.183109	-1.629656	7.223000
9.247004	-1.579471	7.269000
9.310976	-1.535514	7.314000
9.375989	-1.514759	7.360000
9.441966	-1.518075	7.406000
9.507147	-1.530462	7.452000
9.573081	-1.512498	7.498000
9.636894	-1.475070	7.544000
9.701199	-1.459428	7.589000
9.764584	-1.467671	7.635000
10.001593	-1.470781	7.681000
10.066252	-1.407764	7.846000
10.284463	-1.359943	7.892000
10.350249	-1.308302	8.048000
10.415481	-1.299002	8.094000
10.480986	-1.303820	8.139000
10.546000	-1.342832	8.185000
10.610787	-1.370815	8.231000
10.674146	-1.405261	8.277000
10.738331	-1.429937	8.323000
10.803731	-1.434203	8.369000
10.869585	-1.426753	8.415000
10.935224	-1.427838	8.461000
11.000652	-1.444231	8.506000
11.065341	-1.470892	8.552000
11.129106	-1.508041	8.598000
11.191876	-1.545569	8.644000
11.256968	-1.583444	8.689000
11.322582	-1.619648	8.735000
12.132604	-1.562155	8.781000
12.198236	-1.433536	9.351000
12.262310	-1.420680	9.397000
12.325441	-1.398835	9.443000
12.390905	-1.376939	9.489000
12.456025	-1.343854	9.535000
12.521356	-1.320196	9.580000
12.586953	-1.324853	9.626000
12.651682	-1.321506	9.672000
12.716008	-1.329207	9.718000
12.779454	-1.339177	9.763000
12.844798	-1.322862	9.809000
12.909898	-1.307675	9.855000
13.133027	-1.274572	9.901000
13.198646	-1.282500	10.058000
13.417134	-1.298280	10.103000
13.481004	-1.232844	10.259000
13.546127	-1.196848	10.305000
13.611155	-1.170973	10.351000
13.677312	-1.150204	10.396000
13.742804	-1.135128	10.442000
13.807624	-1.143576	10.488000
13.871728	-1.161692	10.534000
13.935218	-1.177056	10.580000
13.999923	-1.194904	10.626000
14.066163	-1.214635	10.671000
14.131776	-1.261503	10.717000
14.197378	-1.317666	10.763000
14.262439	-1.380341	10.809000
14.327097	-1.426156	10.855000
14.390190	-1.447068	10.900000
14.454380	-1.464243	10.946000
14.675840	-1.407420	10.992000
14.741459	-1.371391	11.148000
14.962343	-1.326889	11.193000
15.025342	-1.250441	11.349000
15.089796	-1.259296	11.395000
15.154731	-1.288045	11.440000
15.219556	-1.322792	11.487000
15.285475	-1.346385	11.533000
15.351407	-1.340548	11.578000
15.416360	-1.302907	11.624000
15.480117	-1.251146	11.670000
15.544068	-1.208133	11.716000
15.608443	-1.185690	11.762000
15.674372	-1.171628	11.807000
15.739737	-1.148735	11.853000
15.805492	-1.136874	11.899000
15.870297	-1.138525	11.945000
15.934898	-1.144854	11.991000
15.999045	-1.168916	12.036000
16.233861	-1.227876	12.082000
16.297667	-1.211112	12.247000
16.516739	-1.199933	12.292000
16.581707	-0.956823	12.448000
16.647093	-0.839930	12.494000
16.712875	-0.776243	12.540000
16.777658	-0.724662	12.586000
16.843000	-0.673729	12.631000
16.906388	-0.634576	12.677000
16.970369	-0.611745	12.723000
17.035273	-0.539074	12.768000
17.100709	-0.455537	12.814000
17.166656	-0.416778	12.860000
17.231917	-0.418023	12.906000
17.296510	-0.448707	12.952000
17.360122	-0.488963	12.997000
17.424071	-0.526707	13.043000
17.489033	-0.569998	13.089000
17.554136	-0.624713	13.134000
17.789502	-0.766262	13.180000
17.854214	-0.803030	13.347000
18.075868	-0.848512	13.393000
18.141767	-1.000437	13.548000
18.207336	-1.020197	13.594000
18.272298	-1.036783	13.640000
18.336258	-1.058801	13.686000
18.399751	-1.069324	13.732000
18.464401	-1.067997	13.777000
18.529584	-1.080550	13.823000
18.595101	-1.095167	13.869000
18.660934	-1.114954	13.914000
18.726261	-1.126502	13.960000
18.789869	-1.116982	14.006000
18.852954	-1.089742	14.052000
18.918250	-1.040675	14.098000
18.983269	-0.982059	14.143000
19.048866	-0.923903	14.189000
19.114552	-0.885503	14.235000
19.922535	-0.869751	14.281000
19.986407	-0.750226	14.852000
20.051392	-0.756374	14.898000
20.116627	-0.767246	14.943000
20.182420	-0.770790	14.989000
20.248402	-0.761505	15.035000
20.313423	-0.728614	15.081000
20.377125	-0.675501	15.126000
20.440713	-0.604406	15.172000
20.504883	-0.530811	15.218000
20.570077	-0.475320	15.264000
20.636416	-0.437946	15.309000
20.702602	-0.392591	15.355000
20.922256	-0.240469	15.401000
20.985652	-0.169280	15.557000
21.205929	-0.131020	15.602000
21.272105	-0.166655	15.758000
21.336880	-0.165509	15.804000
21.402457	-0.159104	15.850000
21.466677	-0.165883	15.895000
21.529927	-0.202099	15.941000
21.594334	-0.227886	15.987000
21.659480	-0.242447	16.032000
21.725014	-0.249928	16.078000
21.790596	-0.270203	16.124000
21.855681	-0.298448	16.170000
21.920787	-0.335779	16.215000
21.983943	-0.381266	16.261000
22.048397	-0.415806	16.307000
22.113764	-0.461126	16.353000
22.178893	-0.506690	16.399000
22.245126	-0.551728	16.445000
22.466385	-0.636676	16.491000
22.530500	-0.639331	16.647000
22.748813	-0.651455	16.693000
22.815396	-0.772136	16.848000
22.880437	-0.811796	16.894000
22.946163	-0.842379	16.940000
23.011355	-0.870916	16.986000
23.075664	-0.879217	17.031000
23.138176	-0.888472	17.077000
23.202595	-0.896581	17.123000
23.268006	-0.899312	17.168000
23.333261	-0.902247	17.214000
23.398930	-0.898097	17.260000
23.464266	-0.889746	17.306000
23.529189	-0.885483	17.351000
23.592225	-0.870664	17.397000
23.656552	-0.856824	17.443000
23.721124	-0.847167	17.489000
23.787064	-0.837310	17.534000
24.023011	-0.896051	17.580000
24.087771	-0.907423	17.747000
24.308428	-0.904721	17.793000
24.374316	-0.879206	17.948000
24.440150	-0.865574	17.994000
24.504497	-0.826519	18.040000
24.568141	-0.765048	18.086000
24.632117	-0.707763	18.132000
24.697937	-0.653170	18.177000
24.762663	-0.594458	18.223000
24.828466	-0.544924	18.269000
24.894123	-0.490546	18.315000
24.959544	-0.448939	18.361000
25.023480	-0.424837	18.406000
25.087072	-0.413165	18.452000
25.152529	-0.412953	18.498000
25.217446	-0.414721	18.544000
25.283105	-0.406552	18.590000
25.349099	-0.389295	18.636000
25.580580	-0.320709	18.682000
25.646502	-0.303638	18.847000
25.868556	-0.288197	18.893000
25.934040	-0.273904	19.048000
25.998187	-0.266373	19.095000
26.061434	-0.256843	19.140000
26.126324	-0.248419	19.186000
26.191188	-0.237123	19.232000
26.257590	-0.227624	19.278000
26.323595	-0.218897	19.324000
26.387940	-0.208535	19.370000
26.452777	-0.195124	19.415000
26.515697	-0.175605	19.461000
26.580261	-0.147698	19.507000
26.645657	-0.123570	19.553000
26.711542	-0.099157	19.598000
26.777128	-0.074194	19.644000
26.842301	-0.048470	19.690000
26.906771	-0.018394	19.736000
27.712658	0.188885	19.781000
27.777547	0.285502	20.352000
27.843777	0.296430	20.398000
27.909057	0.305878	20.444000
27.974318	0.308675	20.489000
28.038529	0.309932	20.535000
28.102104	0.311627	20.581000
28.167396	0.295516	20.627000
28.232602	0.277885	20.673000
28.298238	0.258189	20.719000
28.363820	0.239897	20.764000
28.429033	0.230673	20.810000
28.493011	0.221336	20.856000
28.711342	0.237484	20.902000
28.776725	0.246570	21.057000
28.998304	0.255907	21.102000
29.063760	0.343367	21.258000
29.129384	0.383226	21.304000
29.192310	0.410924	21.350000
29.256476	0.434361	21.396000
29.321491	0.456877	21.441000
29.386880	0.485993	21.487000
29.452283	0.518851	21.533000
29.517888	0.559410	21.578000
29.582662	0.610020	21.624000
29.645989	0.665871	21.670000
29.709141	0.708443	21.716000
29.774245	0.750650	21.761000
29.840092	0.777470	21.807000
29.905344	0.783423	21.853000
29.970868	0.789935	21.899000
30.035874	0.781476	21.945000
30.255460	0.784416	21.990000
30.320204	0.802022	22.147000
30.541903	0.824099	22.193000
30.607387	0.806497	22.348000
30.673340	0.779617	22.394000
30.737270	0.751766	22.440000
30.800363	0.719931	22.486000
30.864812	0.702532	22.532000
30.930021	0.688197	22.577000
30.995599	0.666330	22.623000
31.060934	0.655867	22.669000
31.125963	0.651344	22.715000
31.190427	0.652146	22.760000
31.253546	0.652146	22.806000
31.317352	0.676986	22.852000
31.383274	0.705319	22.898000
31.448397	0.734549	22.943000
31.514644	0.759550	22.989000
31.580097	0.776356	23.035000
31.813695	0.800686	23.080000
31.879804	0.783341	23.247000
32.101158	0.769331	23.293000
32.166109	0.786704	23.449000
32.230557	0.825374	23.495000
32.294357	0.866316	23.540000
32.359278	0.907944	23.586000
32.424711	0.930671	23.632000
32.490412	0.928252	23.678000
32.556294	0.905926	23.724000
32.620839	0.875141	23.770000
32.685299	0.851715	23.816000
32.748338	0.829889	23.861000
32.813186	0.820072	23.907000
32.879172	0.831215	23.953000
32.944589	0.869960	23.999000
33.010835	0.925070	24.044000
33.075738	0.972726	24.090000
33.140394	1.010730	24.136000
33.373717	0.959400	24.182000
33.439042	0.927716	24.347000
33.658566	0.880952	24.393000
33.722569	0.786299	24.549000
33.787982	0.795500	24.594000
33.853138	0.787657	24.640000
33.919074	0.774899	24.686000
33.984721	0.750842	24.732000
34.049231	0.728598	24.778000
34.113246	0.717680	24.824000
34.177015	0.725090	24.869000
34.241456	0.725383	24.915000
34.306946	0.711526	24.961000
34.372862	0.693619	25.007000
34.438737	0.669258	25.053000
34.504007	0.643707	25.099000
34.568652	0.625703	25.145000
34.632156	0.605406	25.190000
34.696536	0.564012	25.236000
35.504805	0.293966	25.282000
35.570901	0.257195	25.852000
35.636115	0.255422	25.898000
35.700502	0.254307	25.944000
35.763841	0.260571	25.990000
35.829062	0.254651	26.036000
35.893779	0.253545	26.081000
35.959638	0.259769	26.127000
36.025201	0.270697	26.173000
36.090061	0.286597	26.218000
36.154821	0.304045	26.264000
36.217925	0.313339	26.310000
36.282685	0.319537	26.356000
36.503366	0.243193	26.402000
36.569582	0.229271	26.557000
36.790808	0.224945	26.603000
36.854238	0.245252	26.759000
36.918161	0.251385	26.805000
36.983351	0.261137	26.851000
37.048687	0.266997	26.897000
37.114481	0.281251	26.942000
37.179875	0.305878	26.988000
37.245046	0.336365	27.034000
37.309080	0.384960	27.080000
37.373133	0.434532	27.126000
37.437466	0.480364	27.171000
37.502146	0.523298	27.217000
37.567905	0.554475	27.263000
37.633506	0.598037	27.309000
37.698831	0.643455	27.354000
37.762811	0.696854	27.400000
37.826561	0.756344	27.446000
38.047191	0.899804	27.492000
38.112228	0.924324	27.647000
38.333811	0.937586	27.693000
38.398917	0.953447	27.849000
38.463196	0.960931	27.895000
38.527069	0.965821	27.941000
38.591817	0.967096	27.987000
38.657592	0.968574	28.032000
38.722947	0.965251	28.078000
38.788064	0.968665	28.123000
38.852859	0.960634	28.169000
38.916359	0.957469	28.215000
38.979993	0.951708	28.261000
39.045068	0.948780	28.306000
39.110889	0.942746	28.352000
39.175883	0.930962	28.398000
39.242276	0.923028	28.444000
39.306698	0.909541	28.489000
39.370666	0.906789	28.536000
39.606740	0.923684	28.581000
39.671992	0.958175	28.747000
39.891970	1.003104	28.793000
39.955838	1.141146	28.949000
40.020448	1.168705	28.995000
40.085477	1.191717	29.041000
40.151359	1.198895	29.086000
40.216692	1.219314	29.132000
40.281409	1.237701	29.178000
40.345589	1.246224	29.223000
40.409089	1.252086	29.269000
40.473988	1.264022	29.315000
40.539289	1.280442	29.361000
40.604453	1.296214	29.406000
40.670384	1.304067	29.452000
40.735148	1.314606	29.498000
40.799309	1.334823	29.544000
40.863112	1.347399	29.590000
40.927607	1.356612	29.635000
41.165011	1.419001	29.681000
41.228945	1.433885	29.847000
41.448657	1.444651	29.893000
41.514070	1.478127	30.049000
41.579299	1.496974	30.095000
41.645492	1.526143	30.141000
41.710901	1.547960	30.187000
41.774962	1.537153	30.232000
41.838961	1.510915	30.278000
41.903037	1.476869	30.324000
41.968132	1.418778	30.370000
42.033452	1.367937	30.415000
42.099250	1.309656	30.462000
42.164548	1.256623	30.507000
42.229292	1.204488	30.553000
42.293499	1.163714	30.599000
42.357456	1.125726	30.645000
42.422477	1.096050	30.690000
42.487618	1.073544	30.736000
43.298299	0.967460	30.782000
43.362552	1.341123	31.352000
43.425595	1.461621	31.399000
43.489913	1.532488	31.444000
43.555261	1.569998	31.490000
43.620755	1.585796	31.536000
43.686744	1.567474	31.582000
43.751980	1.524044	31.628000
43.817101	1.450753	31.674000
43.881201	1.402654	31.720000
43.944535	1.381219	31.765000
44.009449	1.378779	31.811000
44.074820	1.386264	31.857000
44.296945	1.254374	31.902000
44.361455	1.194302	32.058000
44.581601	1.153861	32.104000
44.646269	1.033641	32.260000
44.711456	1.049617	32.306000
44.776519	1.055083	32.352000
44.842259	1.049833	32.398000
44.907430	1.045624	32.444000
44.972747	1.050116	32.489000
45.035298	1.056108	32.535000
45.099466	1.056077	32.580000
45.164565	1.050824	32.627000
45.230077	1.022406	32.672000
45.295410	1.000499	32.718000
45.361092	0.952221	32.764000
45.425764	0.897625	32.809000
45.489148	0.871416	32.855000
45.552921	0.851664	32.901000
45.617950	0.836074	32.947000
45.839979	0.763138	32.993000
45.906214	0.749595	33.149000
46.126606	0.733140	33.194000
46.189776	0.838323	33.350000
46.254405	0.897304	33.396000
46.319476	0.928100	33.442000
46.385761	0.956618	33.488000
46.451213	0.996466	33.534000
46.516603	1.022592	33.580000
46.581459	1.055815	33.626000
46.644871	1.079242	33.671000
46.708309	1.114050	33.717000
46.743157	1.154957	33.763000
46.838567	1.168035	33.809000
46.905086	1.195509	33.854000
46.970837	1.225766	33.900000
47.035678	1.252510	33.946000
47.100181	1.273609	33.992000
47.162928	1.306673	34.038000
47.397796	1.329852	34.084000
47.460719	1.334430	34.248000
47.680777	1.340252	34.293000
47.745941	1.349767	34.449000
47.812587	1.360760	34.495000
47.878576	1.385271	34.541000
47.943920	1.398864	34.587000
48.008684	1.425139	34.633000
48.072130	1.454740	34.679000
48.136372	1.480186	34.724000
48.201378	1.488286	34.771000
48.266944	1.486702	34.816000
48.332334	1.477732	34.862000
48.397536	1.464755	34.908000
48.462119	1.434025	34.953000
48.526215	1.418264	34.999000
48.589665	1.427862	35.045000
48.654813	1.451016	35.091000
48.720141	1.469550	35.136000
48.954468	1.536675	35.182000
49.018951	1.517301	35.348000
49.240738	1.520626	35.393000
49.306604	1.536931	35.550000
49.371718	1.535326	35.595000
49.436389	1.543690	35.641000
49.499874	1.550686	35.687000
49.563985	1.550918	35.733000
49.628334	1.557490	35.779000
49.694112	1.545254	35.824000
49.760255	1.509587	35.870000
49.825222	1.478949	35.916000
49.889686	1.457729	35.962000
49.953578	1.455620	36.007000
50.018257	1.465951	36.053000
50.082983	1.475784	36.099000
50.148719	1.486005	36.145000
50.214508	1.511940	36.191000
50.280167	1.517230	36.236000
51.086980	1.490396	36.282000
51.151429	1.426625	36.853000
51.216761	1.422372	36.899000
51.282178	1.421017	36.945000
51.347599	1.409201	36.991000
51.412421	1.400326	37.037000
51.477899	1.376127	37.082000
51.541768	1.350150	37.128000
51.605579	1.326798	37.174000
51.670143	1.307179	37.220000
51.735452	1.294622	37.266000
51.801288	1.285171	37.311000
51.867085	1.274021	37.357000
52.087339	1.265469	37.403000
52.151242	1.273589	37.559000
52.371804	1.267268	37.605000
52.437052	1.296538	37.761000
52.503064	1.313462	37.806000
52.568224	1.336587	37.852000
52.633107	1.347912	37.898000
52.696330	1.369499	37.944000
52.759645	1.381314	37.989000
52.825039	1.391416	38.035000
52.890614	1.407897	38.081000
52.956327	1.424480	38.127000
53.021179	1.439714	38.172000
53.086162	1.458814	38.218000
53.149923	1.482069	38.264000
53.213707	1.506494	38.309000
53.278325	1.532841	38.355000
53.343676	1.558867	38.401000
53.409270	1.594787	38.447000
53.631979	1.701239	38.493000
53.696670	1.727942	38.649000
53.915571	1.750794	38.695000
53.981261	1.814096	38.851000
54.046467	1.826060	38.896000
54.112614	1.839871	38.943000
54.177412	1.854558	38.988000
54.242614	1.861085	39.034000
54.306225	1.869378	39.080000
54.369810	1.881401	39.126000
54.435303	1.887635	39.172000
54.500367	1.889503	39.217000
54.566256	1.891022	39.263000
54.631654	1.895908	39.309000
54.696237	1.909950	39.354000
54.760348	1.936612	39.400000
54.824390	1.953748	39.446000
54.888912	1.979896	39.492000
54.954163	2.003019	39.538000
55.186123	2.065154	39.583000
55.250764	2.089621	39.748000
55.473826	2.125315	39.793000
55.539796	2.215707	39.950000
55.604875	2.220556	39.996000
55.669831	2.224901	40.042000
55.733197	2.220364	40.088000
55.797277	2.230884	40.133000
55.862974	2.240531	40.179000
55.928041	2.266750	40.225000
55.993843	2.294651	40.271000
56.058537	2.315740	40.317000
56.123251	2.326527	40.362000
56.186413	2.320717	40.408000
56.250520	2.293738	40.454000
56.315687	2.270570	40.499000
