Sample	2mm tape 
date	07/01/2025
	
Temperature (K)	77.00
Angle (deg.)	0.000000
field / T	0.300000
	
		
Approx. trace time (s)	120.0	
		
Current / A	V1  -sample/ uV	time/s
-0.022797	-1.722884	0.000000
-0.022338	-1.767102	0.046000
-0.022816	-1.813179	0.092000
-0.022374	-1.854348	0.138000
-0.022147	-1.883972	0.183000
-0.022678	-1.894678	0.229000
-0.023144	-1.903001	0.275000
-0.022642	-1.904292	0.320000
-0.022816	-1.867305	0.366000
-0.022822	-1.854554	0.533000
-0.022421	-1.862409	0.579000
-0.016801	-1.840265	0.735000
-0.001350	-1.808256	0.781000
0.023453	-1.784486	0.827000
0.047134	-1.762173	0.873000
0.068470	-1.755751	0.919000
0.088281	-1.750238	0.964000
0.108438	-1.758648	1.010000
0.129613	-1.766719	1.056000
0.149939	-1.768376	1.102000
0.170392	-1.765464	1.148000
0.193481	-1.777410	1.194000
0.214909	-1.816809	1.240000
0.234960	-1.857633	1.285000
0.255316	-1.887449	1.331000
0.275683	-1.916650	1.377000
0.297433	-1.931005	1.422000
0.372625	-1.886600	1.468000
0.392802	-1.850789	1.633000
0.465195	-1.806922	1.678000
0.485814	-1.638208	1.836000
0.507615	-1.608762	1.881000
0.528801	-1.590618	1.927000
0.550240	-1.576314	1.973000
0.569413	-1.565759	2.018000
0.590126	-1.560378	2.064000
0.610703	-1.532314	2.110000
0.632434	-1.498566	2.155000
0.653286	-1.506970	2.201000
0.675350	-1.534292	2.247000
0.695269	-1.581952	2.292000
0.717688	-1.614573	2.339000
0.736836	-1.621433	2.384000
0.757507	-1.606694	2.430000
0.779152	-1.577752	2.476000
0.800634	-1.534726	2.521000
1.065374	-1.677944	2.567000
1.087383	-2.113553	3.148000
1.108497	-2.157287	3.194000
1.130279	-2.190205	3.240000
1.150354	-2.212125	3.286000
1.171906	-2.221122	3.331000
1.191295	-2.232736	3.377000
1.212745	-2.215200	3.423000
1.233962	-2.183798	3.468000
1.254622	-2.135043	3.514000
1.276667	-2.075498	3.560000
1.297618	-2.022329	3.606000
1.318862	-1.995705	3.652000
1.388384	-2.002873	3.697000
1.409613	-2.006880	3.853000
1.481449	-2.009444	3.899000
1.503032	-1.857229	4.054000
1.524164	-1.806841	4.100000
1.544203	-1.769662	4.146000
1.565487	-1.743322	4.191000
1.586361	-1.720151	4.238000
1.607601	-1.705631	4.283000
1.628358	-1.694931	4.329000
1.649928	-1.698464	4.375000
1.671515	-1.722540	4.421000
1.691569	-1.764320	4.467000
1.712780	-1.809311	4.513000
1.732998	-1.841819	4.558000
1.753636	-1.864305	4.604000
1.775251	-1.874941	4.650000
1.796722	-1.876633	4.695000
1.817822	-1.865144	4.741000
1.889919	-1.855982	4.787000
1.909635	-1.849149	4.942000
1.981962	-1.810746	4.989000
2.002585	-1.745589	5.145000
2.024187	-1.783765	5.191000
2.044602	-1.824653	5.236000
2.065994	-1.847386	5.282000
2.086164	-1.860859	5.328000
2.107325	-1.865128	5.373000
2.127913	-1.855130	5.419000
2.149549	-1.821806	5.465000
2.171436	-1.777480	5.511000
2.191603	-1.720857	5.557000
2.212760	-1.674492	5.602000
2.233869	-1.628540	5.648000
2.253861	-1.593944	5.694000
2.274784	-1.543751	5.739000
2.296859	-1.487617	5.785000
2.317899	-1.441416	5.831000
2.389152	-1.371838	5.877000
2.409908	-1.382158	6.033000
2.481529	-1.397619	6.079000
2.502238	-1.434411	6.236000
2.524055	-1.439448	6.282000
2.545533	-1.420024	6.327000
2.565464	-1.411354	6.373000
2.586313	-1.392203	6.419000
2.607850	-1.377997	6.464000
2.627250	-1.366288	6.510000
2.649116	-1.356125	6.556000
2.670740	-1.345980	6.602000
2.691461	-1.337638	6.648000
2.713153	-1.334281	6.693000
2.733461	-1.322970	6.739000
2.754559	-1.317759	6.785000
2.775446	-1.327063	6.831000
2.796351	-1.345576	6.876000
2.817757	-1.370270	6.922000
2.893385	-1.420965	6.968000
2.914249	-1.418667	7.133000
2.986493	-1.409824	7.178000
3.008320	-1.345516	7.336000
3.028683	-1.322356	7.382000
3.049092	-1.313062	7.427000
3.070002	-1.321685	7.473000
3.090666	-1.339503	7.519000
3.111440	-1.378220	7.565000
3.133353	-1.430893	7.611000
3.153517	-1.464803	7.656000
3.174865	-1.471435	7.702000
3.195706	-1.456726	7.748000
3.216297	-1.411263	7.794000
3.237879	-1.362830	7.840000
3.258809	-1.331706	7.886000
3.280218	-1.296001	7.932000
3.301474	-1.247977	7.977000
3.322719	-1.205740	8.023000
3.587816	-1.308333	8.069000
3.608367	-1.930374	8.648000
3.630113	-2.030901	8.694000
3.650427	-2.121843	8.740000
3.671674	-2.202498	8.786000
3.692180	-2.275667	8.831000
3.713344	-2.332724	8.877000
3.734036	-2.376603	8.923000
3.755295	-2.415626	8.969000
3.776177	-2.453856	9.015000
3.797482	-2.473736	9.060000
3.818221	-2.502925	9.106000
3.839164	-2.528342	9.151000
3.910769	-2.610120	9.198000
3.932536	-2.629739	9.353000
4.003177	-2.650181	9.399000
4.024190	-2.705613	9.554000
4.045834	-2.711472	9.600000
4.065902	-2.709831	9.646000
4.086179	-2.691045	9.692000
4.107900	-2.677805	9.737000
4.129343	-2.644884	9.783000
4.150427	-2.607184	9.829000
4.171021	-2.569778	9.875000
4.192268	-2.526776	9.920000
4.212785	-2.475325	9.966000
4.233705	-2.428239	10.012000
4.255108	-2.376280	10.057000
4.276439	-2.331386	10.103000
4.297065	-2.284061	10.149000
4.318082	-2.232301	10.195000
4.338640	-2.171952	10.240000
4.410836	-1.970219	10.286000
4.431099	-1.931368	10.442000
4.502948	-1.907705	10.488000
4.523873	-1.879726	10.643000
4.544818	-1.914398	10.689000
4.565269	-1.962401	10.735000
4.586448	-2.009171	10.781000
4.608146	-2.062660	10.827000
4.629086	-2.110736	10.872000
4.650510	-2.160149	10.918000
4.671429	-2.195713	10.964000
4.691793	-2.223939	11.009000
4.713358	-2.232857	11.055000
4.734123	-2.220416	11.101000
4.755597	-2.193637	11.147000
4.776790	-2.169998	11.193000
4.797505	-2.133291	11.238000
4.818440	-2.101577	11.284000
4.839374	-2.062650	11.330000
4.910322	-1.948464	11.376000
4.931373	-1.911550	11.533000
5.003502	-1.859172	11.579000
5.025390	-1.762283	11.736000
5.046230	-1.742460	11.782000
5.067143	-1.724784	11.827000
5.087510	-1.701693	11.873000
5.108438	-1.713962	11.919000
5.129174	-1.702148	11.964000
5.149738	-1.672244	12.010000
5.171760	-1.664704	12.056000
5.192952	-1.693705	12.101000
5.213476	-1.702017	12.147000
5.234423	-1.676090	12.193000
5.254901	-1.609689	12.239000
5.276220	-1.568323	12.285000
5.297036	-1.535791	12.331000
5.318553	-1.497732	12.376000
5.339822	-1.496263	12.422000
5.414897	-1.602819	12.468000
5.436384	-1.606095	12.633000
5.508227	-1.596886	12.679000
5.529001	-1.665308	12.836000
5.549763	-1.733382	12.882000
5.570541	-1.796165	12.927000
5.591614	-1.846826	12.973000
5.613402	-1.889892	13.019000
5.634973	-1.930418	13.065000
5.655817	-1.958064	13.110000
5.676489	-1.983176	13.156000
5.697437	-2.010458	13.202000
5.717978	-2.046869	13.248000
5.738369	-2.074686	13.294000
5.759709	-2.091531	13.339000
5.781153	-2.065644	13.385000
5.802639	-2.019287	13.431000
5.823575	-1.979648	13.477000
5.844014	-1.982060	13.523000
6.110443	-1.868767	13.568000
6.131082	-1.577307	14.148000
6.151879	-1.550035	14.194000
6.172921	-1.527498	14.239000
6.193061	-1.523939	14.286000
6.214541	-1.519612	14.331000
6.235681	-1.522895	14.377000
6.257029	-1.558887	14.423000
6.277621	-1.646003	14.469000
6.298611	-1.759872	14.515000
6.319308	-1.887206	14.560000
6.340183	-2.000237	14.606000
6.361529	-2.089922	14.652000
6.433552	-2.259963	14.697000
6.454412	-2.283546	14.853000
6.525167	-2.301560	14.899000
6.546300	-2.384887	15.055000
6.567572	-2.429334	15.100000
6.589244	-2.484986	15.146000
6.610609	-2.541483	15.192000
6.631406	-2.594783	15.238000
6.652279	-2.638206	15.284000
6.672789	-2.666642	15.329000
6.693723	-2.685306	15.375000
6.714078	-2.693811	15.421000
6.735732	-2.688349	15.467000
6.757679	-2.661810	15.512000
6.777870	-2.630842	15.558000
6.798207	-2.594003	15.604000
6.819490	-2.519110	15.649000
6.839849	-2.447042	15.695000
6.861325	-2.372489	15.741000
6.932709	-2.125337	15.786000
6.954001	-2.073916	15.942000
7.024322	-2.022552	15.988000
7.045743	-1.772600	16.144000
7.066727	-1.678368	16.190000
7.087691	-1.595344	16.236000
7.109725	-1.542383	16.282000
7.129876	-1.510700	16.327000
7.150636	-1.507383	16.373000
7.171958	-1.500418	16.419000
7.192206	-1.485225	16.465000
7.213404	-1.482261	16.510000
7.234732	-1.474801	16.556000
7.255578	-1.464832	16.602000
7.276649	-1.460027	16.648000
7.297578	-1.473675	16.693000
7.318646	-1.490342	16.739000
7.339418	-1.506379	16.785000
7.359910	-1.506939	16.830000
7.432434	-1.604749	16.876000
7.453930	-1.656785	17.033000
7.525640	-1.723337	17.079000
7.546554	-1.882886	17.236000
7.566893	-1.937869	17.282000
7.587870	-1.998950	17.328000
7.608070	-2.051522	17.373000
7.629709	-2.085387	17.419000
7.650841	-2.100977	17.465000
7.672042	-2.102903	17.511000
7.693167	-2.092675	17.556000
7.713677	-2.087564	17.602000
7.733935	-2.118491	17.648000
7.755134	-2.164724	17.694000
7.776309	-2.212739	17.740000
7.797809	-2.238647	17.786000
7.818602	-2.251589	17.831000
7.839879	-2.246582	17.877000
7.860645	-2.237544	17.923000
7.966275	-2.020431	17.968000
8.038565	-1.996030	18.201000
8.059287	-2.018850	18.357000
8.081228	-2.062010	18.403000
8.102246	-2.107981	18.449000
8.123031	-2.147128	18.495000
8.143846	-2.170263	18.541000
8.165692	-2.184648	18.586000
8.186566	-2.219240	18.632000
8.206994	-2.258766	18.678000
8.227982	-2.299591	18.724000
8.248773	-2.325070	18.769000
8.269506	-2.326661	18.815000
8.290244	-2.320093	18.861000
8.311548	-2.294543	18.907000
8.333134	-2.259720	18.952000
8.354083	-2.220847	18.998000
8.374505	-2.182965	19.044000
8.631038	-1.930271	19.090000
8.651883	-2.089200	19.649000
8.671854	-2.101906	19.694000
8.693301	-2.107859	19.740000
8.714737	-2.096513	19.786000
8.735970	-2.077325	19.832000
8.757162	-2.042845	19.878000
8.777458	-1.998756	19.924000
8.798256	-1.953903	19.970000
8.819224	-1.911588	20.015000
8.840011	-1.860845	20.061000
8.861576	-1.788449	20.107000
8.882711	-1.723823	20.153000
8.953926	-1.560587	20.198000
8.975106	-1.555328	20.355000
9.045491	-1.593901	20.400000
9.067095	-1.938292	20.556000
9.088497	-1.978560	20.602000
9.109427	-1.994742	20.647000
9.129807	-1.989215	20.693000
9.150538	-1.960148	20.739000
9.171252	-1.917459	20.785000
9.192232	-1.866247	20.831000
9.213244	-1.802046	20.877000
9.234358	-1.724104	20.923000
9.256137	-1.633996	20.968000
9.277020	-1.555172	21.014000
9.297674	-1.512555	21.059000
9.318452	-1.505317	21.105000
9.339962	-1.515250	21.151000
9.360317	-1.542452	21.197000
9.381753	-1.580122	21.243000
9.454122	-1.753908	21.289000
9.474221	-1.820107	21.445000
9.545400	-1.875039	21.491000
9.566435	-1.948926	21.646000
9.587609	-1.932410	21.692000
9.608337	-1.905158	21.738000
9.629920	-1.882651	21.784000
9.650581	-1.859811	21.830000
9.671334	-1.824978	21.876000
9.692093	-1.782003	21.921000
9.712495	-1.732043	21.967000
9.733663	-1.677880	22.012000
9.755201	-1.633386	22.058000
9.776449	-1.598018	22.104000
9.797338	-1.572570	22.150000
9.818303	-1.549821	22.196000
9.839457	-1.522468	22.242000
9.860616	-1.483244	22.288000
9.881083	-1.456184	22.334000
9.953268	-1.403598	22.379000
9.974597	-1.378629	22.535000
10.045476	-1.374914	22.581000
10.065737	-1.537575	22.736000
10.086508	-1.596033	22.782000
10.107610	-1.641768	22.828000
10.129116	-1.667009	22.874000
10.150406	-1.680431	22.920000
10.171555	-1.676596	22.966000
10.191474	-1.686647	23.012000
10.212395	-1.743389	23.057000
10.233137	-1.816654	23.103000
10.254143	-1.892030	23.149000
10.275719	-1.970590	23.194000
10.297007	-2.039048	23.240000
10.318098	-2.103575	23.286000
10.338278	-2.162263	23.332000
10.358998	-2.188190	23.377000
10.380580	-2.187701	23.423000
10.456134	-2.165117	23.469000
10.476930	-2.177541	23.634000
10.548394	-2.175172	23.680000
10.569522	-1.954948	23.836000
10.591249	-1.890318	23.882000
10.612293	-1.838086	23.928000
10.633013	-1.789495	23.974000
10.653527	-1.747442	24.019000
10.674540	-1.716889	24.065000
10.695260	-1.669400	24.111000
10.716174	-1.620625	24.157000
10.737826	-1.585366	24.203000
10.759046	-1.566761	24.248000
10.779309	-1.533084	24.294000
10.800289	-1.480028	24.340000
10.820998	-1.438664	24.386000
10.842027	-1.416788	24.431000
10.863099	-1.405310	24.477000
10.884514	-1.409130	24.523000
11.149251	-1.191130	24.569000
11.169969	-1.088051	25.148000
11.191583	-1.082069	25.195000
11.212739	-1.066821	25.240000
11.233881	-1.053692	25.286000
11.254521	-1.062349	25.332000
11.275302	-1.060041	25.378000
11.296505	-1.039865	25.424000
11.317710	-1.015502	25.470000
11.338796	-0.996250	25.516000
11.359955	-0.978892	25.561000
11.381197	-0.967515	25.607000
11.401408	-0.969119	25.653000
11.472519	-1.069702	25.699000
11.493454	-1.102905	25.855000
11.565399	-1.140667	25.901000
11.587167	-1.280074	26.056000
11.608185	-1.332857	26.102000
11.628564	-1.388258	26.148000
11.649439	-1.435796	26.194000
11.670746	-1.466373	26.240000
11.691625	-1.479876	26.285000
11.712112	-1.487085	26.331000
11.733820	-1.499391	26.377000
11.755058	-1.523085	26.423000
11.775431	-1.572843	26.469000
11.796280	-1.629863	26.515000
11.817565	-1.690769	26.560000
11.838303	-1.738571	26.606000
11.859498	-1.775048	26.652000
11.881218	-1.814130	26.698000
11.901933	-1.852592	26.743000
11.972342	-1.942459	26.789000
11.993376	-1.943359	26.945000
12.064960	-1.931376	26.991000
12.086197	-1.859922	27.146000
12.107832	-1.838440	27.192000
12.128448	-1.808425	27.238000
12.149223	-1.764115	27.284000
12.170028	-1.689025	27.330000
12.190895	-1.623648	27.375000
12.211872	-1.603663	27.421000
12.233335	-1.626259	27.466000
12.254449	-1.660937	27.512000
12.275681	-1.666879	27.558000
12.295791	-1.664212	27.604000
12.316574	-1.679095	27.650000
12.337991	-1.720461	27.696000
12.358729	-1.765562	27.741000
12.380324	-1.809700	27.787000
12.401544	-1.855716	27.833000
12.472827	-1.975783	27.879000
12.493565	-2.002364	28.035000
12.564588	-2.032598	28.081000
12.585848	-2.075294	28.237000
12.607333	-2.063560	28.282000
12.628435	-2.031631	28.328000
12.649294	-2.018219	28.374000
12.669857	-1.992265	28.419000
12.690834	-1.956653	28.465000
12.711798	-1.906803	28.511000
12.732944	-1.849560	28.556000
12.754041	-1.784025	28.602000
12.775142	-1.730481	28.648000
12.795987	-1.684359	28.694000
12.816663	-1.652715	28.740000
12.837396	-1.643834	28.785000
12.858589	-1.637568	28.831000
12.879068	-1.624852	28.877000
12.900745	-1.597590	28.923000
12.976306	-1.490542	28.969000
12.996498	-1.473703	29.134000
13.068789	-1.464294	29.180000
13.090279	-1.475223	29.337000
13.111114	-1.471099	29.382000
13.131945	-1.456285	29.428000
13.152801	-1.418917	29.474000
13.173559	-1.385438	29.520000
13.194870	-1.357046	29.566000
13.216064	-1.339441	29.611000
13.237628	-1.333548	29.657000
13.258240	-1.339965	29.703000
13.279127	-1.348715	29.749000
13.299936	-1.388642	29.795000
13.320890	-1.428659	29.840000
13.341712	-1.465218	29.886000
13.362768	-1.503581	29.932000
13.384747	-1.541902	29.978000
13.405708	-1.572045	30.023000
13.671468	-1.381913	30.069000
13.692543	-1.485747	30.649000
13.712490	-1.524220	30.695000
13.733370	-1.563454	30.740000
13.753910	-1.585901	30.786000
13.774932	-1.603259	30.832000
13.795955	-1.625463	30.877000
13.817589	-1.656479	30.923000
13.839000	-1.679115	30.969000
13.859854	-1.681334	31.015000
13.880324	-1.690679	31.061000
13.901351	-1.702804	31.106000
13.922245	-1.719831	31.152000
13.993823	-1.754292	31.198000
14.015122	-1.740718	31.354000
14.085972	-1.720502	31.400000
14.107049	-1.669157	31.555000
14.127797	-1.616207	31.601000
14.148766	-1.547914	31.647000
14.169961	-1.461130	31.693000
14.191099	-1.380046	31.738000
14.212357	-1.320529	31.784000
14.233064	-1.305761	31.830000
14.253642	-1.312460	31.876000
14.274617	-1.337283	31.921000
14.295406	-1.362682	31.967000
14.316352	-1.374823	32.013000
14.337894	-1.378862	32.059000
14.359002	-1.383049	32.104000
14.379897	-1.388106	32.150000
14.400159	-1.398640	32.196000
14.421263	-1.410256	32.242000
14.492847	-1.500601	32.288000
14.514146	-1.496483	32.443000
14.585478	-1.479134	32.489000
14.606089	-1.369475	32.644000
14.626868	-1.331693	32.690000
14.647668	-1.305271	32.736000
14.668815	-1.270136	32.782000
14.690181	-1.232112	32.828000
14.711645	-1.178892	32.874000
14.732665	-1.144215	32.920000
14.753175	-1.151028	32.965000
14.772945	-1.193529	33.011000
14.793865	-1.255606	33.057000
14.815266	-1.330094	33.103000
14.836529	-1.404173	33.148000
14.857747	-1.479674	33.194000
14.879249	-1.542754	33.240000
14.899953	-1.582312	33.286000
14.921112	-1.595645	33.332000
14.991493	-1.546212	33.378000
15.012426	-1.522822	33.534000
15.084967	-1.507820	33.580000
15.106318	-1.555051	33.737000
15.127303	-1.600373	33.782000
15.147994	-1.652936	33.828000
15.168843	-1.700456	33.874000
15.190018	-1.729146	33.920000
15.210518	-1.729186	33.966000
15.231928	-1.718153	34.012000
15.253581	-1.685942	34.057000
15.274347	-1.654353	34.103000
15.294914	-1.630272	34.149000
15.315850	-1.622082	34.195000
15.337041	-1.619811	34.241000
15.357476	-1.611803	34.286000
15.378756	-1.592034	34.332000
15.400590	-1.571607	34.378000
15.421444	-1.542229	34.424000
15.496311	-1.434317	34.469000
15.517711	-1.425202	34.634000
15.589266	-1.428749	34.680000
15.610181	-1.332756	34.837000
15.631170	-1.292323	34.883000
15.651934	-1.247092	34.929000
15.673268	-1.210853	34.974000
15.693588	-1.174719	35.020000
15.714870	-1.138173	35.066000
15.735802	-1.140893	35.111000
15.756889	-1.177502	35.158000
15.777781	-1.213554	35.203000
15.798383	-1.242864	35.249000
15.819658	-1.291790	35.295000
15.841207	-1.334612	35.341000
15.862402	-1.380252	35.387000
15.883403	-1.426185	35.433000
15.904534	-1.457754	35.478000
15.925221	-1.472688	35.524000
16.191099	-1.585466	35.569000
16.212075	-1.462896	36.149000
16.232676	-1.416443	36.195000
16.253341	-1.343608	36.241000
16.274109	-1.282132	36.287000
16.295448	-1.244905	36.332000
16.317511	-1.212399	36.378000
16.337989	-1.170061	36.424000
16.358439	-1.127679	36.470000
16.379784	-1.076991	36.515000
16.399868	-1.035434	36.561000
16.420982	-0.992640	36.607000
16.442473	-0.963633	36.653000
16.514044	-0.871156	36.698000
16.534853	-0.862784	36.854000
16.606081	-0.851232	36.900000
16.626880	-0.848071	37.056000
16.647656	-0.847149	37.102000
16.669500	-0.843404	37.147000
16.690773	-0.852880	37.193000
16.711632	-0.855380	37.239000
16.732443	-0.859432	37.285000
16.752295	-0.848984	37.331000
16.772679	-0.815720	37.377000
16.794026	-0.789591	37.422000
16.815491	-0.787907	37.468000
16.836976	-0.783858	37.514000
16.858159	-0.767559	37.559000
16.879612	-0.735649	37.605000
16.900430	-0.697572	37.651000
16.921485	-0.667180	37.697000
16.942130	-0.640464	37.743000
17.014360	-0.536332	37.789000
17.035534	-0.506809	37.944000
17.104933	-0.459218	37.990000
17.126082	-0.320877	38.146000
17.147109	-0.325615	38.191000
17.168050	-0.360726	38.237000
17.189770	-0.382308	38.283000
17.210834	-0.381588	38.329000
17.231537	-0.381265	38.375000
17.252246	-0.393220	38.420000
17.273241	-0.393211	38.466000
17.293842	-0.381925	38.512000
17.315108	-0.369481	38.558000
17.336664	-0.353790	38.604000
17.358372	-0.342279	38.650000
17.379148	-0.347158	38.695000
17.399513	-0.362202	38.741000
17.420440	-0.384768	38.787000
17.441582	-0.399021	38.833000
17.512972	-0.442747	38.878000
17.534426	-0.430569	39.035000
17.606002	-0.443972	39.080000
17.626422	-0.567238	39.237000
17.647373	-0.578863	39.283000
17.668814	-0.606286	39.329000
17.688841	-0.632111	39.375000
17.710491	-0.642119	39.420000
17.731695	-0.632893	39.466000
17.752817	-0.611287	39.512000
17.773699	-0.611267	39.558000
17.794164	-0.601778	39.604000
17.815466	-0.572962	39.650000
17.837066	-0.528296	39.695000
17.857840	-0.498099	39.741000
17.879492	-0.472751	39.787000
17.900824	-0.453154	39.833000
17.921158	-0.420121	39.879000
17.941844	-0.391472	39.925000
18.017645	-0.316201	39.970000
18.038252	-0.300303	40.135000
18.110123	-0.315788	40.181000
18.131366	-0.287458	40.337000
18.152388	-0.253760	40.383000
18.172843	-0.227064	40.429000
