Sample	2mm tape 
date	07/01/2025
	
Temperature (K)	77.00
Angle (deg.)	0.000000
field / T	0.025000
	
		
Approx. trace time (s)	120.0	
		
Current / A	V1  -sample/ uV	time/s
-0.022571	-2.958391	0.000000
-0.022648	-3.074518	0.140000
-0.022266	-3.106220	0.186000
-0.022392	-2.971140	0.342000
-0.022326	-2.965137	0.387000
-0.021884	-2.968261	0.433000
-0.021752	-2.964233	0.479000
-0.022410	-2.944107	0.525000
-0.022332	-2.907069	0.570000
-0.022248	-2.860140	0.616000
-0.022553	-2.817742	0.662000
-0.022284	-2.787360	0.708000
-0.008159	-2.786275	0.753000
0.004569	-2.823643	0.799000
0.034341	-2.907541	0.844000
0.054893	-3.002116	0.890000
0.076920	-3.082962	0.936000
0.097879	-3.138649	0.982000
0.117427	-3.169864	1.028000
0.383041	-3.057185	1.074000
0.403558	-3.050719	1.652000
0.423395	-3.068536	1.697000
0.443493	-3.084488	1.743000
0.465200	-3.098695	1.789000
0.486621	-3.112969	1.835000
0.506814	-3.131392	1.881000
0.527736	-3.158104	1.926000
0.549498	-3.190861	1.972000
0.570015	-3.213480	2.018000
0.591169	-3.210365	2.063000
0.611898	-3.188418	2.109000
0.633575	-3.156311	2.155000
0.706039	-3.046293	2.200000
0.725423	-3.013941	2.357000
0.796060	-2.977445	2.402000
0.816409	-2.902250	2.558000
0.837982	-2.877762	2.604000
0.859429	-2.851969	2.650000
0.880616	-2.825207	2.696000
0.901683	-2.787826	2.741000
0.921599	-2.723520	2.787000
0.944041	-2.637773	2.833000
0.963709	-2.550603	2.878000
0.984894	-2.471506	2.924000
1.006209	-2.384133	2.970000
1.027526	-2.295639	3.015000
1.047981	-2.214410	3.061000
1.069153	-2.147626	3.107000
1.089997	-2.095006	3.153000
1.110800	-2.051842	3.199000
1.130606	-2.013137	3.244000
1.203231	-1.908925	3.290000
1.224735	-1.905619	3.446000
1.296095	-1.897124	3.492000
1.315775	-1.913316	3.647000
1.337104	-1.938621	3.693000
1.358461	-1.944582	3.739000
1.379770	-1.941826	3.785000
1.400694	-1.933805	3.830000
1.422079	-1.923770	3.876000
1.442317	-1.925351	3.921000
1.463677	-1.932811	3.967000
1.484535	-1.943638	4.013000
1.504369	-1.954944	4.059000
1.526916	-1.967179	4.105000
1.547545	-1.976305	4.151000
1.568686	-1.981788	4.196000
1.589709	-1.948282	4.242000
1.609098	-1.900471	4.288000
1.630280	-1.900047	4.333000
1.703875	-2.054005	4.379000
1.725666	-2.105243	4.540000
1.796963	-2.148367	4.586000
1.818814	-2.102284	4.742000
1.839360	-2.061600	4.788000
1.860771	-2.027150	4.833000
1.881605	-1.997574	4.880000
1.902127	-1.961309	4.925000
1.923242	-1.925845	4.971000
1.945210	-1.902479	5.017000
1.965128	-1.899759	5.063000
1.986543	-1.905629	5.108000
2.007116	-1.909657	5.154000
2.027512	-1.897468	5.199000
2.048702	-1.865809	5.245000
2.070345	-1.825339	5.291000
2.091543	-1.790666	5.337000
2.112734	-1.761186	5.382000
2.133634	-1.737416	5.428000
2.208569	-1.626532	5.474000
2.231042	-1.587511	5.640000
2.302193	-1.545481	5.686000
2.323340	-1.439639	5.842000
2.343485	-1.392315	5.888000
2.364343	-1.352412	5.933000
2.385401	-1.319348	5.979000
2.407526	-1.302685	6.025000
2.427619	-1.316036	6.070000
2.448605	-1.364458	6.116000
2.469104	-1.434652	6.162000
2.489328	-1.510436	6.208000
2.510459	-1.576563	6.253000
2.532444	-1.631250	6.299000
2.553211	-1.680230	6.344000
2.574029	-1.724034	6.390000
2.594450	-1.760292	6.435000
2.615820	-1.785037	6.481000
2.636001	-1.805496	6.527000
2.902673	-1.960163	6.573000
2.922334	-1.952238	7.152000
2.943456	-1.927834	7.198000
2.964615	-1.895958	7.244000
2.986137	-1.863093	7.290000
3.007785	-1.841233	7.335000
3.029002	-1.832577	7.381000
3.048909	-1.827484	7.426000
3.069873	-1.820448	7.472000
3.091051	-1.810122	7.518000
3.111859	-1.800016	7.564000
3.132524	-1.805081	7.609000
3.154158	-1.822467	7.655000
3.225378	-1.816112	7.701000
3.247193	-1.801336	7.857000
3.317904	-1.798468	7.902000
3.339218	-1.694826	8.058000
3.360242	-1.612298	8.104000
3.380609	-1.539025	8.150000
3.401546	-1.484259	8.196000
3.422182	-1.448559	8.242000
3.443460	-1.435596	8.287000
3.464140	-1.451318	8.333000
3.485638	-1.498868	8.379000
3.506616	-1.567957	8.424000
3.527465	-1.631878	8.470000
3.548633	-1.670437	8.516000
3.569437	-1.694257	8.562000
3.590093	-1.722239	8.607000
3.610388	-1.769396	8.653000
3.631262	-1.824182	8.699000
3.653211	-1.875318	8.744000
3.724951	-1.908137	8.790000
3.745378	-1.903837	8.946000
3.816774	-1.897377	8.991000
3.837870	-1.795748	9.148000
3.859609	-1.759719	9.193000
3.880453	-1.728505	9.239000
3.901495	-1.694715	9.285000
3.922288	-1.664576	9.331000
3.942805	-1.647016	9.376000
3.962712	-1.641164	9.422000
3.984231	-1.645373	9.468000
4.005459	-1.651547	9.514000
4.027178	-1.651335	9.559000
4.047969	-1.640503	9.605000
4.068939	-1.620620	9.651000
4.088959	-1.603005	9.696000
4.110835	-1.593943	9.742000
4.131608	-1.589097	9.788000
4.152076	-1.584584	9.834000
4.227180	-1.465927	9.879000
4.248056	-1.433028	10.040000
4.319479	-1.416341	10.086000
4.340365	-1.445652	10.242000
4.360533	-1.444757	10.288000
4.381712	-1.426976	10.334000
4.402843	-1.406790	10.379000
4.424362	-1.394016	10.425000
4.444610	-1.394181	10.470000
4.466053	-1.410430	10.516000
4.486358	-1.424048	10.562000
4.507580	-1.425749	10.608000
4.528379	-1.404055	10.654000
4.549616	-1.370310	10.700000
4.570765	-1.337378	10.745000
4.591939	-1.301063	10.791000
4.612948	-1.286365	10.837000
4.633650	-1.305025	10.883000
4.654034	-1.349413	10.928000
4.731453	-1.495258	10.974000
4.751990	-1.514236	11.140000
4.823790	-1.523544	11.186000
4.844743	-1.481044	11.342000
4.865507	-1.481246	11.388000
4.887445	-1.482523	11.433000
4.907847	-1.483670	11.479000
4.928726	-1.476289	11.525000
4.949800	-1.454429	11.571000
4.970663	-1.423387	11.616000
4.991530	-1.397100	11.662000
5.012179	-1.379545	11.708000
5.033413	-1.365957	11.754000
5.054663	-1.347185	11.799000
5.075471	-1.322403	11.845000
5.095981	-1.297257	11.890000
5.116942	-1.295262	11.936000
5.136987	-1.328612	11.982000
5.158010	-1.395000	12.028000
5.423463	-1.609646	12.073000
5.444503	-1.464008	12.652000
5.466570	-1.443066	12.698000
5.487470	-1.407441	12.744000
5.508097	-1.367159	12.790000
5.529038	-1.336011	12.835000
5.549537	-1.329388	12.881000
5.570501	-1.332648	12.927000
5.591513	-1.330981	12.972000
5.613151	-1.327140	13.018000
5.634351	-1.322463	13.063000
5.655160	-1.320195	13.109000
5.676047	-1.322069	13.155000
5.747067	-1.377780	13.201000
5.767776	-1.402980	13.357000
5.840516	-1.430575	13.403000
5.861314	-1.415427	13.559000
5.882216	-1.412074	13.604000
5.902946	-1.429948	13.650000
5.923940	-1.449361	13.696000
5.944955	-1.462368	13.742000
5.965796	-1.443824	13.787000
5.987078	-1.395313	13.833000
6.007967	-1.344766	13.879000
6.029436	-1.308220	13.925000
6.049888	-1.283955	13.971000
6.070522	-1.245091	14.016000
6.091206	-1.219583	14.062000
6.112330	-1.218882	14.108000
6.134045	-1.210358	14.153000
6.155057	-1.189746	14.199000
6.175448	-1.156001	14.245000
6.246094	-1.090106	14.291000
6.267103	-1.087012	14.446000
6.339117	-1.078009	14.492000
6.360434	-0.989676	14.647000
6.381189	-0.964393	14.693000
6.402139	-0.930576	14.739000
6.422823	-0.901755	14.785000
6.443146	-0.888444	14.831000
6.464148	-0.881126	14.877000
6.485783	-0.874523	14.922000
6.507072	-0.879659	14.968000
6.528231	-0.893727	15.014000
6.549059	-0.921357	15.059000
6.569917	-0.962415	15.105000
6.591031	-1.018306	15.151000
6.611578	-1.082268	15.196000
6.633341	-1.133202	15.242000
6.654990	-1.175401	15.288000
6.675411	-1.208833	15.334000
6.749824	-1.348059	15.379000
6.769997	-1.386899	15.541000
6.841291	-1.395833	15.587000
6.862027	-1.452839	15.742000
6.882807	-1.501098	15.788000
6.903940	-1.544587	15.834000
6.925383	-1.586012	15.880000
6.946138	-1.623768	15.925000
6.966819	-1.663729	15.971000
6.988215	-1.711700	16.017000
7.008296	-1.765570	16.063000
7.029515	-1.819468	16.108000
7.050875	-1.869842	16.154000
7.072266	-1.917057	16.200000
7.093019	-1.951455	16.245000
7.113499	-1.976941	16.291000
7.133908	-1.991815	16.337000
7.154642	-1.986420	16.382000
7.176137	-1.971111	16.428000
7.252597	-2.058367	16.474000
7.273030	-2.109713	16.640000
7.345214	-2.167054	16.686000
7.365993	-2.305754	16.842000
7.387130	-2.318337	16.888000
7.407912	-2.328452	16.934000
7.428882	-2.332136	16.979000
7.449715	-2.324894	17.025000
7.470748	-2.311543	17.071000
7.491061	-2.295971	17.117000
7.512745	-2.284120	17.162000
7.533575	-2.264228	17.208000
7.554182	-2.220547	17.254000
7.575351	-2.163673	17.299000
7.595872	-2.115221	17.345000
7.616711	-2.080021	17.391000
7.637825	-2.061910	17.436000
7.659229	-2.049185	17.482000
7.680666	-2.043651	17.528000
7.945371	-2.213763	17.574000
7.965977	-1.984037	18.153000
7.987302	-1.948932	18.198000
8.008239	-1.939544	18.244000
8.028923	-1.955014	18.290000
8.049687	-1.987686	18.336000
8.070689	-2.017341	18.381000
8.092295	-2.039437	18.427000
8.113491	-2.053198	18.472000
8.133882	-2.061252	18.518000
8.154649	-2.066428	18.564000
8.175186	-2.071957	18.610000
8.195458	-2.079910	18.655000
8.267907	-2.145225	18.701000
8.289883	-2.167518	18.857000
8.360856	-2.187554	18.903000
8.381674	-2.221020	19.059000
8.402697	-2.211102	19.105000
8.423517	-2.188250	19.151000
8.444356	-2.152962	19.197000
8.465785	-2.107792	19.243000
8.487277	-2.052465	19.288000
8.508540	-1.997226	19.334000
8.529009	-1.952480	19.380000
8.549217	-1.914169	19.425000
8.570237	-1.879170	19.471000
8.590976	-1.849193	19.516000
8.612486	-1.820664	19.562000
8.634042	-1.797063	19.608000
8.654194	-1.771034	19.654000
8.674887	-1.732446	19.699000
8.696006	-1.678364	19.745000
8.766534	-1.505913	19.791000
8.788224	-1.482694	19.946000
8.859749	-1.467895	19.992000
8.880772	-1.460400	20.148000
8.901365	-1.478630	20.194000
8.922066	-1.504808	20.239000
8.943069	-1.518441	20.285000
8.964399	-1.532261	20.331000
8.986317	-1.562602	20.376000
9.006050	-1.598064	20.422000
9.026603	-1.584361	20.468000
9.047382	-1.498135	20.514000
9.068219	-1.410591	20.559000
9.089144	-1.343854	20.605000
9.111006	-1.293028	20.650000
9.131532	-1.261340	20.696000
9.152198	-1.247511	20.742000
9.173358	-1.256613	20.788000
9.193811	-1.272964	20.833000
9.268147	-1.344434	20.880000
9.288903	-1.384864	21.041000
9.360758	-1.434521	21.087000
9.382275	-1.490816	21.242000
9.403765	-1.499484	21.288000
9.424311	-1.536794	21.334000
9.444999	-1.597771	21.380000
9.465706	-1.667323	21.426000
9.486347	-1.732678	21.471000
9.507285	-1.789774	21.517000
9.528857	-1.838210	21.563000
9.550193	-1.877943	21.608000
9.570993	-1.910973	21.654000
9.591600	-1.931008	21.700000
9.611770	-1.928329	21.746000
9.632798	-1.904473	21.791000
9.653957	-1.873643	21.837000
9.675245	-1.844812	21.883000
9.696375	-1.815576	21.928000
9.864229	-1.597984	21.974000
9.884961	-1.553238	22.340000
9.905746	-1.553673	22.386000
9.926413	-1.557494	22.432000
9.946699	-1.562899	22.478000
9.968313	-1.564561	22.523000
9.989756	-1.559452	22.569000
10.010474	-1.557464	22.615000
10.031742	-1.565100	22.660000
10.052110	-1.575725	22.706000
10.072435	-1.575826	22.752000
10.093506	-1.563545	22.797000
10.114800	-1.541185	22.843000
10.136313	-1.508134	22.889000
10.157236	-1.465199	22.935000
10.177298	-1.421796	22.980000
10.198154	-1.380548	23.026000
10.465147	-1.038601	23.072000
10.486051	-0.868256	23.653000
10.506926	-0.847759	23.698000
10.528044	-0.838677	23.744000
10.548548	-0.846785	23.790000
10.570293	-0.870726	23.836000
10.591032	-0.888968	23.882000
10.612388	-0.890791	23.928000
10.633079	-0.879992	23.973000
10.653461	-0.865148	24.019000
10.674072	-0.856212	24.064000
10.695221	-0.857909	24.110000
10.716290	-0.858561	24.156000
10.787940	-0.799337	24.202000
10.808965	-0.786460	24.358000
10.880358	-0.792665	24.404000
10.900690	-0.884588	24.559000
10.921971	-0.917223	24.605000
10.943826	-0.942159	24.651000
10.965272	-0.951042	24.696000
10.985226	-0.965140	24.742000
11.004888	-0.997837	24.788000
11.026169	-1.017871	24.834000
11.047285	-1.021601	24.879000
11.067933	-1.045122	24.925000
11.089527	-1.087753	24.970000
11.110250	-1.117569	25.016000
11.131269	-1.125515	25.062000
11.151710	-1.123854	25.108000
11.172433	-1.108434	25.153000
11.193716	-1.085124	25.199000
11.214395	-1.075110	25.245000
11.286996	-1.020839	25.290000
11.308185	-0.999489	25.447000
11.378609	-0.984578	25.492000
11.399742	-0.966205	25.648000
11.420980	-0.974781	25.694000
11.442063	-1.008492	25.740000
11.462751	-1.063623	25.785000
11.483402	-1.138653	25.831000
11.504403	-1.236226	25.877000
11.525038	-1.345417	25.923000
11.545715	-1.445479	25.969000
11.567446	-1.520218	26.015000
11.588383	-1.569315	26.060000
11.609576	-1.618689	26.106000
11.630913	-1.669121	26.152000
11.651274	-1.707275	26.197000
11.672050	-1.722238	26.243000
11.692076	-1.704891	26.289000
11.713231	-1.668345	26.334000
11.786949	-1.516078	26.380000
11.808911	-1.477070	26.541000
11.881138	-1.433617	26.587000
11.902114	-1.224440	26.743000
11.922525	-1.195570	26.789000
11.942695	-1.192531	26.834000
11.963845	-1.204144	26.880000
11.984818	-1.217929	26.926000
12.006115	-1.220066	26.971000
12.027581	-1.201877	27.017000
12.048626	-1.167255	27.063000
12.068575	-1.138501	27.108000
12.089958	-1.127765	27.154000
12.110969	-1.131853	27.199000
12.131546	-1.142610	27.245000
12.153384	-1.152180	27.291000
12.174014	-1.176740	27.337000
12.194746	-1.218277	27.383000
12.215602	-1.268014	27.428000
12.292843	-1.467712	27.474000
12.314444	-1.511480	27.641000
12.385544	-1.541140	27.687000
12.405264	-1.550104	27.843000
12.426227	-1.522469	27.888000
12.447257	-1.481114	27.934000
12.468328	-1.434621	27.980000
12.489630	-1.393844	28.026000
12.511239	-1.358229	28.072000
12.531373	-1.319760	28.117000
12.552474	-1.275552	28.163000
12.573191	-1.233776	28.209000
12.594217	-1.198605	28.254000
12.615474	-1.172506	28.300000
12.636940	-1.140570	28.346000
12.657610	-1.101528	28.392000
12.678451	-1.068326	28.437000
12.698861	-1.049357	28.483000
12.720177	-1.053477	28.529000
12.985018	-1.364211	28.574000
13.005958	-1.818948	29.153000
13.027119	-1.861387	29.199000
13.048077	-1.890707	29.245000
13.069713	-1.902649	29.290000
13.090701	-1.872416	29.336000
13.110788	-1.816606	29.382000
13.131481	-1.770162	29.428000
13.152421	-1.737828	29.473000
13.173436	-1.719910	29.519000
13.194814	-1.713272	29.565000
13.216010	-1.719376	29.610000
13.237201	-1.738689	29.656000
13.307927	-1.774849	29.702000
13.329313	-1.774346	29.858000
13.400384	-1.770793	29.903000
13.421922	-1.823147	30.059000
13.443382	-1.872164	30.105000
13.463291	-1.933390	30.151000
13.484015	-1.984435	30.197000
13.504458	-2.027996	30.243000
13.525808	-2.062642	30.288000
13.546910	-2.087959	30.334000
13.568663	-2.097919	30.380000
13.590292	-2.092385	30.426000
13.611407	-2.079103	30.471000
13.631703	-2.060485	30.517000
13.652425	-2.025128	30.563000
13.673439	-1.978454	30.609000
13.694183	-1.935284	30.654000
13.715048	-1.911377	30.700000
13.737005	-1.904780	30.746000
13.808279	-1.962605	30.791000
13.828698	-1.988449	30.948000
13.900208	-2.000653	30.994000
13.920557	-2.048862	31.149000
13.941583	-2.081381	31.195000
13.962960	-2.113024	31.241000
13.984121	-2.144226	31.287000
14.004642	-2.158712	31.332000
14.025659	-2.178309	31.378000
14.046819	-2.217547	31.424000
14.067616	-2.261967	31.469000
14.089615	-2.302703	31.515000
14.110729	-2.336088	31.561000
14.131665	-2.363522	31.607000
14.151814	-2.381840	31.652000
14.171571	-2.395266	31.698000
14.192764	-2.403791	31.743000
14.214014	-2.406335	31.789000
14.235020	-2.392606	31.835000
14.309209	-2.284871	31.880000
14.330395	-2.259891	32.041000
14.401042	-2.243082	32.087000
14.421680	-2.234973	32.243000
14.442783	-2.218721	32.289000
14.463878	-2.200854	32.335000
14.485195	-2.180455	32.380000
14.506743	-2.152770	32.426000
14.527383	-2.118733	32.471000
14.547911	-2.079859	32.517000
14.568738	-2.031357	32.563000
14.589433	-1.974693	32.609000
14.610601	-1.916244	32.655000
14.632010	-1.861650	32.700000
14.653329	-1.812098	32.746000
14.674290	-1.757369	32.791000
14.694581	-1.679781	32.837000
14.715235	-1.602126	32.883000
14.736487	-1.533225	32.929000
14.813186	-1.463715	32.974000
14.833940	-1.478782	33.141000
14.905227	-1.495722	33.187000
14.926095	-1.540695	33.343000
14.947239	-1.552263	33.389000
14.968733	-1.559097	33.434000
14.988950	-1.554444	33.480000
15.009193	-1.543910	33.526000
15.029964	-1.526036	33.571000
15.050944	-1.503752	33.617000
15.072069	-1.479674	33.663000
15.093134	-1.453761	33.709000
15.114087	-1.422038	33.754000
15.135088	-1.380476	33.800000
15.155532	-1.333642	33.846000
15.176275	-1.274561	33.891000
15.197277	-1.203251	33.937000
15.218434	-1.132661	33.983000
15.239532	-1.072656	34.028000
15.505270	-0.987943	34.074000
15.526371	-1.342245	34.653000
15.548074	-1.352094	34.699000
15.568816	-1.353440	34.744000
15.588914	-1.348157	34.790000
15.610091	-1.327609	34.836000
15.631351	-1.300597	34.882000
15.652125	-1.269380	34.927000
15.673324	-1.225867	34.973000
15.693807	-1.188615	35.019000
15.714989	-1.162582	35.065000
15.735605	-1.130465	35.111000
15.756693	-1.087955	35.156000
15.827683	-0.973312	35.202000
15.849027	-0.981009	35.358000
15.921339	-0.999357	35.404000
15.941926	-1.105047	35.559000
15.963208	-1.152948	35.605000
15.983690	-1.186933	35.651000
16.004566	-1.209437	35.697000
16.026072	-1.240081	35.743000
16.046776	-1.288632	35.789000
16.068425	-1.337700	35.834000
16.089265	-1.370290	35.880000
16.109991	-1.380311	35.925000
16.130911	-1.373542	35.971000
16.150861	-1.369983	36.017000
16.171604	-1.365377	36.063000
16.193354	-1.336822	36.108000
16.214730	-1.292897	36.154000
16.235239	-1.238826	36.200000
16.256347	-1.203001	36.246000
16.327300	-1.074227	36.291000
16.348329	-1.037010	36.447000
16.420055	-0.994854	36.493000
16.441305	-0.842891	36.649000
16.462271	-0.820255	36.695000
16.482836	-0.822327	36.740000
16.504240	-0.846847	36.786000
16.524559	-0.881186	36.832000
16.545827	-0.896331	36.878000
16.567164	-0.866932	36.923000
16.588236	-0.810311	36.969000
16.608758	-0.743508	37.015000
16.629296	-0.677893	37.060000
16.650299	-0.630592	37.106000
16.671025	-0.607242	37.152000
16.692496	-0.607697	37.197000
16.713733	-0.622653	37.243000
16.734704	-0.644398	37.289000
16.754738	-0.664815	37.335000
16.829095	-0.700269	37.380000
16.850274	-0.702066	37.542000
16.921853	-0.695645	37.588000
16.942708	-0.624022	37.743000
16.963963	-0.599591	37.789000
16.985031	-0.581930	37.835000
17.005618	-0.565929	37.880000
17.026337	-0.558428	37.926000
17.047157	-0.555794	37.971000
17.067851	-0.547234	38.017000
17.088761	-0.536629	38.063000
17.109683	-0.525135	38.109000
17.131460	-0.493804	38.154000
17.152403	-0.444541	38.200000
17.172645	-0.404618	38.246000
17.193504	-0.399401	38.292000
17.214532	-0.445978	38.338000
17.235383	-0.535568	38.383000
17.256719	-0.637922	38.429000
17.332736	-0.927319	38.474000
17.353600	-0.976618	38.642000
17.425719	-1.017912	38.687000
17.446528	-1.047535	38.843000
17.467550	-1.028789	38.889000
17.488574	-1.003496	38.935000
17.509036	-0.982316	38.980000
17.529843	-0.975523	39.026000
17.551403	-0.979101	39.072000
17.572077	-0.996834	39.118000
17.593305	-1.033624	39.164000
17.614717	-1.073682	39.209000
17.635180	-1.094830	39.255000
17.656015	-1.084579	39.301000
17.677041	-1.068155	39.346000
17.697318	-1.057419	39.392000
17.718818	-1.060034	39.437000
17.739915	-1.085917	39.483000
17.761133	-1.128326	39.529000
18.026775	-1.103830	39.575000
18.047549	-0.940244	40.154000
18.068346	-0.949103	40.199000
18.089066	-0.980004	40.245000
18.110359	-1.027945	40.290000
18.130935	-1.072606	40.336000
18.151719	-1.072576	40.382000
18.173047	-1.022443	40.428000
18.194082	-0.958977	40.474000
18.215171	-0.904925	40.519000
18.235363	-0.863498	40.565000
18.256994	-0.835814	40.611000
18.277630	-0.827665	40.656000
18.349743	-0.864513	40.702000
18.371495	-0.876135	40.858000
