Sample	2mm tape 
date	07/01/2025
	
Temperature (K)	77.00
Angle (deg.)	0.000000
field / T	0.100000
	
		
Approx. trace time (s)	120.0	
		
Current / A	V1  -sample/ uV	time/s
-0.022398	-2.156572	0.000000
-0.022845	-2.062699	0.046000
-0.022917	-2.053404	0.202000
-0.022140	-2.056359	0.248000
-0.022702	-2.156865	0.404000
-0.022971	-2.196103	0.450000
-0.022320	-2.235710	0.495000
-0.021925	-2.275916	0.541000
-0.022559	-2.311339	0.587000
-0.022606	-2.347178	0.633000
-0.021943	-2.385594	0.679000
-0.022368	-2.436619	0.724000
-0.007747	-2.496277	0.770000
0.010142	-2.543706	0.815000
0.034604	-2.588373	0.862000
0.055012	-2.621382	0.907000
0.077338	-2.638524	0.953000
0.098459	-2.648706	0.999000
0.120705	-2.648342	1.045000
0.140314	-2.638106	1.091000
0.401676	-2.314534	1.137000
0.422064	-2.038868	1.711000
0.443909	-1.992674	1.756000
0.464462	-1.945712	1.802000
0.485453	-1.915937	1.848000
0.506478	-1.908687	1.894000
0.527514	-1.919454	1.940000
0.549115	-1.935616	1.985000
0.569618	-1.950598	2.031000
0.590494	-1.965847	2.077000
0.611005	-1.979106	2.123000
0.632581	-1.989933	2.168000
0.654078	-1.987717	2.214000
0.725237	-1.933628	2.260000
0.747020	-1.913038	2.416000
0.816553	-1.880809	2.462000
0.837846	-1.803403	2.618000
0.858783	-1.786789	2.664000
0.881173	-1.762091	2.710000
0.902384	-1.732388	2.756000
0.921988	-1.716738	2.801000
0.944054	-1.740211	2.847000
0.964315	-1.803352	2.893000
0.984686	-1.879175	2.938000
1.006313	-1.953041	2.984000
1.027039	-2.017013	3.030000
1.048233	-2.073590	3.076000
1.068528	-2.127113	3.121000
1.090280	-2.178367	3.167000
1.109888	-2.226250	3.213000
1.131147	-2.276026	3.258000
1.152334	-2.326547	3.304000
1.224236	-2.530858	3.350000
1.245620	-2.578918	3.507000
1.316526	-2.613317	3.552000
1.337329	-2.638605	3.708000
1.358597	-2.625866	3.754000
1.379799	-2.621543	3.800000
1.400794	-2.638291	3.846000
1.422137	-2.678769	3.892000
1.442926	-2.735942	3.938000
1.462862	-2.800359	3.983000
1.484277	-2.862964	4.029000
1.505031	-2.921646	4.075000
1.526432	-2.985184	4.121000
1.547420	-3.041054	4.166000
1.568411	-3.097241	4.212000
1.590224	-3.148356	4.258000
1.610811	-3.192244	4.304000
1.630137	-3.229673	4.349000
1.652090	-3.262986	4.395000
1.724226	-3.334279	4.441000
1.745138	-3.343371	4.597000
1.816325	-3.353169	4.643000
1.837862	-3.400023	4.799000
1.858444	-3.410622	4.844000
1.879435	-3.420653	4.890000
1.900664	-3.424646	4.936000
1.922384	-3.424897	4.982000
1.943328	-3.414489	5.028000
1.964288	-3.393928	5.074000
1.985224	-3.364198	5.119000
2.004933	-3.334736	5.165000
2.026356	-3.314550	5.211000
2.047757	-3.301128	5.257000
2.069668	-3.300306	5.302000
2.089969	-3.301512	5.348000
2.110264	-3.306883	5.394000
2.131550	-3.315187	5.440000
2.152881	-3.331819	5.486000
2.228570	-3.412609	5.531000
2.249577	-3.431702	5.697000
2.320246	-3.444080	5.742000
2.341981	-3.494649	5.899000
2.363119	-3.510439	5.944000
2.384521	-3.527821	5.990000
2.405343	-3.547489	6.036000
2.426650	-3.561208	6.082000
2.446895	-3.576079	6.128000
2.467573	-3.586340	6.174000
2.488509	-3.588975	6.220000
2.510262	-3.584422	6.266000
2.531663	-3.566024	6.311000
2.552591	-3.541073	6.357000
2.573141	-3.511664	6.403000
2.594666	-3.477723	6.449000
2.615087	-3.448605	6.494000
2.635310	-3.425588	6.540000
2.656585	-3.407322	6.586000
2.922578	-3.432517	6.632000
2.943957	-3.421716	7.211000
2.964979	-3.415703	7.257000
2.986776	-3.401378	7.303000
3.007766	-3.382700	7.349000
3.027323	-3.359528	7.394000
3.048633	-3.327801	7.440000
3.069609	-3.289722	7.486000
3.090273	-3.253500	7.532000
3.110789	-3.217366	7.578000
3.132679	-3.182239	7.624000
3.153656	-3.142475	7.669000
3.174293	-3.105178	7.715000
3.246721	-2.996600	7.761000
3.267190	-2.965642	7.918000
3.338802	-2.933308	7.963000
3.360585	-2.780305	8.119000
3.380468	-2.718230	8.165000
3.401763	-2.653271	8.211000
3.422879	-2.598992	8.257000
3.443564	-2.553454	8.303000
3.464878	-2.513424	8.349000
3.486131	-2.486760	8.395000
3.506846	-2.476626	8.440000
3.527815	-2.482568	8.486000
3.549240	-2.497572	8.532000
3.570324	-2.514957	8.578000
3.590992	-2.537461	8.623000
3.611228	-2.553902	8.669000
3.632264	-2.571759	8.715000
3.654166	-2.581920	8.761000
3.675508	-2.582923	8.806000
3.745891	-2.600982	8.852000
3.766917	-2.620725	9.008000
3.838160	-2.639461	9.054000
3.859035	-2.685148	9.210000
3.880710	-2.699251	9.255000
3.902151	-2.721057	9.301000
3.923323	-2.745864	9.347000
3.944546	-2.777619	9.393000
3.964639	-2.813851	9.439000
3.985122	-2.839421	9.485000
4.006375	-2.852742	9.531000
4.027424	-2.859636	9.576000
4.049434	-2.852091	9.622000
4.070553	-2.800632	9.668000
4.090395	-2.718229	9.714000
4.111088	-2.620857	9.759000
4.132118	-2.522344	9.805000
4.152812	-2.441136	9.851000
4.173883	-2.390388	9.896000
4.246264	-2.390862	9.942000
4.267954	-2.401376	10.098000
4.338648	-2.417130	10.144000
4.360017	-2.553584	10.299000
4.380664	-2.599515	10.345000
4.402374	-2.647196	10.391000
4.423253	-2.686017	10.437000
4.443932	-2.720420	10.483000
4.465017	-2.747212	10.529000
4.486056	-2.770451	10.575000
4.506484	-2.795053	10.621000
4.528012	-2.818787	10.667000
4.549215	-2.841521	10.712000
4.570012	-2.861329	10.758000
4.591394	-2.875804	10.804000
4.611962	-2.884118	10.849000
4.632567	-2.885273	10.895000
4.653746	-2.881422	10.941000
4.674399	-2.880937	10.987000
4.750620	-2.854862	11.032000
4.771257	-2.825077	11.197000
4.843179	-2.779442	11.243000
4.864021	-2.482285	11.399000
4.885206	-2.400291	11.445000
4.905537	-2.348781	11.490000
4.926869	-2.316164	11.536000
4.947708	-2.294348	11.582000
4.968727	-2.280649	11.628000
4.990096	-2.268657	11.674000
5.011463	-2.257718	11.720000
5.032608	-2.248896	11.766000
5.053858	-2.234381	11.812000
5.074542	-2.217332	11.858000
5.094277	-2.199041	11.904000
5.115250	-2.188341	11.949000
5.136101	-2.187660	11.995000
5.157913	-2.193038	12.041000
5.178994	-2.208150	12.087000
5.444114	-2.117444	12.133000
5.465659	-2.125565	12.711000
5.486673	-2.105913	12.757000
5.507611	-2.074834	12.803000
5.528302	-2.032436	12.848000
5.549387	-1.983466	12.894000
5.570149	-1.938179	12.940000
5.591387	-1.895346	12.986000
5.613032	-1.863885	13.032000
5.634161	-1.832111	13.077000
5.654832	-1.792005	13.123000
5.675826	-1.751133	13.169000
5.697006	-1.720402	13.215000
5.768275	-1.684319	13.261000
5.789521	-1.677061	13.417000
5.860577	-1.680020	13.462000
5.881772	-1.858525	13.619000
5.902742	-1.920963	13.664000
5.923514	-1.978692	13.710000
5.944667	-2.035909	13.756000
5.965303	-2.088825	13.802000
5.987135	-2.132761	13.848000
6.008379	-2.169974	13.894000
6.029380	-2.195528	13.940000
6.050375	-2.213657	13.985000
6.070885	-2.220734	14.031000
6.091784	-2.223875	14.077000
6.112719	-2.221067	14.123000
6.134045	-2.211844	14.169000
6.155128	-2.191773	14.215000
6.175883	-2.159304	14.260000
6.196710	-2.114582	14.306000
6.268694	-1.938261	14.352000
6.289494	-1.910705	14.508000
6.361014	-1.901106	14.554000
6.382567	-1.980974	14.709000
6.402946	-2.015453	14.755000
6.423653	-2.049191	14.801000
6.444384	-2.097714	14.847000
6.465388	-2.155680	14.893000
6.486269	-2.203911	14.938000
6.507767	-2.217837	14.984000
6.529290	-2.190362	15.030000
6.550096	-2.163518	15.076000
6.570846	-2.143411	15.122000
6.591661	-2.123317	15.167000
6.612385	-2.092027	15.213000
6.633804	-2.063651	15.259000
6.655088	-2.034907	15.305000
6.676209	-1.993017	15.350000
6.697142	-1.946025	15.396000
6.768402	-1.840934	15.442000
6.788806	-1.829966	15.598000
6.860456	-1.830653	15.644000
6.882219	-1.888664	15.800000
6.902912	-1.910827	15.846000
6.923691	-1.933072	15.892000
6.944871	-1.955120	15.937000
6.965825	-1.975538	15.983000
6.987024	-1.994738	16.029000
7.008049	-2.010951	16.075000
7.029042	-2.031303	16.121000
7.051036	-2.052890	16.167000
7.071541	-2.077547	16.212000
7.091741	-2.104567	16.258000
7.112329	-2.132214	16.304000
7.133172	-2.162656	16.350000
7.154320	-2.200257	16.395000
7.175439	-2.243080	16.441000
7.196822	-2.293375	16.487000
7.271207	-2.489300	16.533000
7.292665	-2.535544	16.697000
7.364381	-2.577364	16.743000
7.385180	-2.677728	16.899000
7.406075	-2.700922	16.945000
7.426495	-2.723388	16.990000
7.447931	-2.749039	17.036000
7.469072	-2.772273	17.082000
7.490256	-2.792207	17.128000
7.511609	-2.808944	17.173000
7.532722	-2.827680	17.219000
7.553275	-2.841692	17.265000
7.573959	-2.853927	17.311000
7.594783	-2.863730	17.357000
7.615509	-2.873779	17.402000
7.636950	-2.880438	17.448000
7.658074	-2.885284	17.494000
7.679426	-2.887302	17.540000
7.700235	-2.884839	17.585000
7.965158	-2.777049	17.631000
7.986476	-2.630614	18.211000
8.007261	-2.587731	18.257000
8.028270	-2.537783	18.303000
8.049501	-2.485636	18.349000
8.070121	-2.444330	18.394000
8.091725	-2.411472	18.440000
8.113200	-2.397585	18.486000
8.133817	-2.408806	18.532000
8.154429	-2.446077	18.577000
8.175139	-2.492134	18.623000
8.195185	-2.536729	18.669000
8.216440	-2.575261	18.714000
8.288621	-2.661027	18.760000
8.309058	-2.680666	18.916000
8.380637	-2.696959	18.961000
8.401184	-2.729767	19.118000
8.422301	-2.737107	19.163000
8.444030	-2.746727	19.209000
8.465507	-2.758862	19.255000
8.486379	-2.770400	19.301000
8.506918	-2.778623	19.346000
8.527816	-2.780294	19.393000
8.548174	-2.768827	19.438000
8.569100	-2.732014	19.484000
8.590795	-2.659913	19.530000
8.612436	-2.568648	19.576000
8.633239	-2.489311	19.622000
8.653720	-2.446804	19.667000
8.674367	-2.447647	19.713000
8.695498	-2.477486	19.759000
8.716222	-2.514804	19.805000
8.787476	-2.393275	19.851000
8.809287	-2.301141	20.006000
8.880647	-2.215937	20.052000
8.901318	-1.996777	20.207000
8.922360	-1.985707	20.254000
8.943423	-1.993440	20.300000
8.964333	-2.008416	20.345000
8.986254	-2.016200	20.391000
9.007086	-2.022347	20.437000
9.027406	-2.018990	20.483000
9.048479	-2.011122	20.529000
9.069561	-2.007675	20.575000
9.089575	-2.016608	20.620000
9.110500	-2.043197	20.666000
9.131845	-2.077455	20.712000
9.152892	-2.119833	20.758000
9.173450	-2.161400	20.803000
9.194030	-2.200549	20.849000
9.215317	-2.231949	20.895000
9.286903	-2.241894	20.941000
9.308754	-2.214783	21.097000
9.380379	-2.180836	21.143000
9.401368	-2.019844	21.299000
9.422314	-1.969000	21.345000
9.442990	-1.914679	21.391000
9.463959	-1.857985	21.436000
9.484841	-1.800284	21.482000
9.506410	-1.745144	21.528000
9.527389	-1.689516	21.574000
9.548265	-1.639097	21.619000
9.569163	-1.593212	21.666000
9.589930	-1.551029	21.711000
9.610243	-1.503401	21.757000
9.631470	-1.443748	21.803000
9.652840	-1.381649	21.849000
9.674182	-1.320321	21.895000
9.695281	-1.265806	21.940000
9.715541	-1.212404	21.986000
9.792233	-1.174370	22.032000
9.894794	-1.394424	22.197000
9.915585	-1.459684	22.420000
9.936029	-1.572158	22.466000
9.956574	-1.693130	22.512000
9.977705	-1.811189	22.558000
9.998335	-1.920741	22.604000
10.019681	-2.006185	22.650000
10.041231	-2.054527	22.695000
10.061803	-2.063661	22.741000
10.082657	-2.050335	22.787000
10.103839	-2.026625	22.833000
10.124805	-1.998236	22.879000
10.145092	-1.978701	22.925000
10.165989	-1.951541	22.971000
10.187133	-1.915653	23.016000
10.208323	-1.878628	23.062000
10.229315	-1.844856	23.108000
10.484796	-1.675474	23.154000
10.506685	-1.573344	23.711000
10.527200	-1.573748	23.757000
10.547411	-1.567838	23.803000
10.569490	-1.555204	23.849000
10.590878	-1.541358	23.895000
10.611896	-1.526584	23.941000
10.632648	-1.509766	23.986000
10.653001	-1.499559	24.032000
10.673895	-1.495971	24.078000
10.694871	-1.491266	24.124000
10.715982	-1.488081	24.169000
10.737614	-1.477405	24.215000
10.808363	-1.357634	24.261000
10.828933	-1.300105	24.417000
10.900372	-1.234576	24.463000
10.921564	-1.016854	24.619000
10.943178	-0.995817	24.665000
10.964272	-0.994115	24.711000
10.985402	-1.003240	24.756000
11.005334	-1.017444	24.802000
11.026136	-1.036025	24.848000
11.047337	-1.054367	24.894000
11.068069	-1.068133	24.939000
11.089542	-1.070232	24.985000
11.110935	-1.067627	25.031000
11.131537	-1.058199	25.077000
11.151957	-1.045484	25.123000
11.172965	-1.036267	25.168000
11.193577	-1.033077	25.214000
11.214963	-1.043863	25.260000
11.235993	-1.064952	25.306000
11.307803	-1.114586	25.351000
11.328882	-1.097050	25.507000
11.400244	-1.068244	25.553000
11.420986	-0.975329	25.709000
11.442057	-0.958692	25.755000
11.462867	-0.948345	25.801000
11.483839	-0.938268	25.846000
11.505258	-0.932206	25.892000
11.525571	-0.927306	25.938000
11.546756	-0.922821	25.984000
11.568010	-0.925462	26.030000
11.588012	-0.933874	26.075000
11.610039	-0.935940	26.121000
11.631610	-0.927831	26.167000
11.652265	-0.907120	26.213000
11.673110	-0.893980	26.259000
11.693979	-0.890336	26.304000
11.714692	-0.893522	26.350000
11.735701	-0.912271	26.396000
11.807497	-1.076955	26.441000
11.828302	-1.146875	26.597000
11.899487	-1.209355	26.643000
11.919955	-1.307998	26.799000
11.940536	-1.318375	26.845000
11.961852	-1.321536	26.891000
11.983101	-1.310054	26.937000
12.004297	-1.295060	26.983000
12.025986	-1.289333	27.028000
12.046858	-1.282146	27.074000
12.066989	-1.262152	27.119000
12.088121	-1.223720	27.166000
12.109143	-1.177001	27.211000
12.130319	-1.129642	27.257000
12.151761	-1.078354	27.303000
12.172843	-1.032467	27.349000
12.193301	-0.999945	27.395000
12.213869	-0.984177	27.440000
12.235143	-0.987922	27.486000
12.311537	-1.114686	27.532000
12.332484	-1.140136	27.698000
12.404405	-1.142234	27.743000
12.424592	-1.127461	27.900000
12.446457	-1.145153	27.945000
12.467995	-1.171342	27.991000
12.488496	-1.201603	28.037000
12.509342	-1.235544	28.083000
12.529827	-1.249273	28.129000
12.550666	-1.230706	28.174000
12.571559	-1.191065	28.220000
12.592968	-1.153739	28.266000
12.614340	-1.123661	28.312000
12.634968	-1.096227	28.357000
12.655359	-1.064251	28.403000
12.676719	-1.027621	28.449000
12.697548	-0.988629	28.495000
12.718788	-0.956016	28.541000
12.739839	-0.932315	28.586000
13.004793	-0.915563	28.632000
13.025907	-1.146763	29.212000
13.047258	-1.159680	29.258000
13.069338	-1.147809	29.304000
13.090307	-1.127911	29.350000
13.110632	-1.131853	29.395000
13.131817	-1.146663	29.441000
13.152973	-1.163833	29.487000
13.173718	-1.171140	29.533000
13.194481	-1.165359	29.579000
13.216407	-1.152911	29.624000
13.236655	-1.133059	29.670000
13.257743	-1.105333	29.716000
13.329256	-0.997674	29.762000
13.349438	-0.990325	29.918000
13.421580	-0.981169	29.963000
13.443087	-0.873123	30.119000
13.463581	-0.837157	30.165000
13.484101	-0.781819	30.211000
13.504837	-0.714226	30.257000
13.525991	-0.661822	30.302000
13.546991	-0.625752	30.348000
13.568250	-0.614415	30.394000
13.589754	-0.612966	30.440000
13.610413	-0.613758	30.485000
13.631205	-0.628569	30.531000
13.651594	-0.647669	30.577000
13.672935	-0.659692	30.623000
13.693668	-0.666243	30.668000
13.714875	-0.655780	30.714000
13.736328	-0.626086	30.760000
13.756815	-0.592181	30.806000
13.827646	-0.471070	30.851000
13.848871	-0.426403	31.008000
13.920198	-0.399656	31.053000
13.941367	-0.490385	31.209000
13.962589	-0.516706	31.255000
13.983565	-0.517789	31.301000
14.004768	-0.507966	31.347000
14.025480	-0.506499	31.393000
14.046521	-0.512679	31.438000
14.067582	-0.507148	31.484000
14.089295	-0.484126	31.530000
14.110814	-0.454640	31.576000
14.131205	-0.411390	31.622000
14.152060	-0.360064	31.667000
14.172289	-0.329652	31.713000
14.193322	-0.311410	31.759000
14.214250	-0.308922	31.804000
14.235719	-0.308831	31.850000
14.257831	-0.306592	31.896000
14.328230	-0.250645	31.942000
14.349190	-0.219316	32.098000
14.419973	-0.203400	32.144000
14.441130	-0.171313	32.300000
14.462616	-0.166618	32.345000
14.484519	-0.158875	32.391000
14.505590	-0.137747	32.437000
14.525454	-0.121504	32.483000
14.546303	-0.116729	32.529000
14.567388	-0.128439	32.574000
14.588209	-0.146443	32.619000
14.609769	-0.168728	32.666000
14.630412	-0.189479	32.711000
14.651168	-0.205227	32.757000
14.672352	-0.220687	32.803000
14.692695	-0.227346	32.849000
14.713988	-0.215141	32.895000
14.734881	-0.186975	32.940000
14.755846	-0.161914	32.986000
14.832234	-0.209891	33.032000
14.853209	-0.224559	33.198000
14.924849	-0.235275	33.244000
14.946217	-0.241155	33.400000
14.967085	-0.253067	33.445000
14.987077	-0.265812	33.491000
15.007635	-0.277670	33.537000
15.029074	-0.274368	33.583000
15.049800	-0.261462	33.629000
15.071803	-0.250146	33.675000
15.093395	-0.248555	33.720000
15.113982	-0.255359	33.766000
15.134193	-0.272359	33.812000
15.155003	-0.305377	33.858000
15.176121	-0.356291	33.903000
15.196776	-0.411076	33.949000
15.217915	-0.450112	33.995000
15.239101	-0.464619	34.041000
15.260022	-0.469225	34.086000
15.525596	-0.349222	34.132000
15.547277	-0.299530	34.712000
15.567969	-0.241075	34.758000
15.588228	-0.178743	34.804000
15.609304	-0.118959	34.849000
15.630495	-0.060164	34.895000
15.650965	-0.006388	34.941000
15.672326	0.062776	34.987000
15.693317	0.146358	35.033000
15.714067	0.203891	35.079000
15.734936	0.221765	35.124000
15.756002	0.201478	35.170000
15.777408	0.144884	35.216000
15.848475	-0.157901	35.262000
15.870063	-0.263460	35.418000
15.942010	-0.380120	35.464000
15.962754	-0.671291	35.619000
15.983667	-0.748998	35.665000
16.004777	-0.809490	35.711000
16.025950	-0.854801	35.757000
16.046554	-0.884126	35.802000
16.068402	-0.894715	35.849000
16.089282	-0.881535	35.894000
16.109790	-0.879196	35.940000
16.130071	-0.895577	35.986000
16.150296	-0.928984	36.032000
16.171107	-0.964996	36.077000
16.192918	-1.004871	36.123000
16.214224	-1.052339	36.169000
16.235715	-1.074306	36.215000
16.256745	-1.079308	36.260000
16.276837	-1.081181	36.306000
16.348341	-1.027702	36.352000
16.369407	-1.011449	36.508000
16.441430	-1.004760	36.554000
16.462415	-0.868102	36.710000
16.483349	-0.749063	36.755000
16.504000	-0.639103	36.801000
16.524571	-0.565358	36.847000
16.545637	-0.521762	36.892000
16.566970	-0.486192	36.938000
16.588334	-0.450023	36.984000
16.609333	-0.403818	37.030000
16.629738	-0.377101	37.076000
16.650243	-0.361642	37.121000
16.671350	-0.339556	37.167000
16.692247	-0.349232	37.213000
16.713710	-0.358417	37.259000
16.735268	-0.328624	37.305000
16.755547	-0.304991	37.350000
16.776246	-0.293539	37.396000
16.848399	-0.223454	37.442000
16.869170	-0.222813	37.598000
16.941335	-0.267321	37.644000
16.963186	-0.407503	37.800000
16.983621	-0.457991	37.846000
17.004176	-0.504760	37.892000
17.025117	-0.520924	37.937000
17.045926	-0.532206	37.983000
17.066546	-0.545506	38.029000
17.088052	-0.561556	38.075000
17.109109	-0.549614	38.120000
17.130121	-0.508799	38.166000
17.150459	-0.474266	38.212000
17.171157	-0.454821	38.258000
17.192002	-0.448309	38.304000
17.212874	-0.457512	38.350000
17.234222	-0.480637	38.395000
17.255692	-0.494230	38.441000
17.276687	-0.489383	38.487000
17.351754	-0.318639	38.533000
17.373362	-0.277856	38.698000
17.445045	-0.259453	38.744000
17.465289	-0.215798	38.900000
17.486428	-0.190554	38.946000
17.507027	-0.172377	38.991000
17.528314	-0.170005	39.037000
17.549576	-0.182649	39.083000
17.570654	-0.192159	39.128000
17.591223	-0.179979	39.174000
17.612114	-0.154065	39.219000
17.632698	-0.112685	39.265000
17.654286	-0.058555	39.311000
17.675105	-0.000345	39.357000
17.695983	0.046762	39.403000
17.717961	0.080703	39.448000
17.738566	0.098900	39.494000
17.759269	0.105840	39.540000
17.780065	0.102085	39.586000
18.046784	0.067887	39.632000
18.067601	-0.143339	40.212000
18.088734	-0.198392	40.258000
18.109312	-0.228960	40.304000
18.130622	-0.246264	40.350000
18.151552	-0.252814	40.395000
18.172616	-0.258519	40.441000
18.194015	-0.271679	40.487000
18.214432	-0.270108	40.533000
18.235655	-0.250125	40.579000
18.256662	-0.220637	40.624000
18.277207	-0.202193	40.670000
18.298354	-0.201628	40.716000
18.370586	-0.241529	40.762000
