Sample	2mm tape 
date	07/01/2025
	
Temperature (K)	77.00
Angle (deg.)	0.000000
field / T	0.200000
	
		
Approx. trace time (s)	120.0	
		
Current / A	V1  -sample/ uV	time/s
-0.022762	-1.518175	0.000000
-0.023036	-1.483090	0.046000
-0.022421	-1.477269	0.092000
-0.023048	-1.582370	0.137000
-0.022481	-1.616356	0.294000
-0.022326	-1.645575	0.340000
-0.022696	-1.666316	0.496000
-0.022164	-1.683720	0.542000
-0.022099	-1.720499	0.587000
-0.023073	-1.769626	0.633000
-0.022774	-1.812880	0.679000
-0.022230	-1.852009	0.725000
-0.005859	-1.876647	0.771000
0.015177	-1.881806	0.817000
0.035727	-1.884495	0.862000
0.055711	-1.873118	0.908000
0.077380	-1.860620	0.954000
0.097957	-1.848148	1.000000
0.120329	-1.827862	1.045000
0.141025	-1.798629	1.091000
0.161282	-1.794299	1.137000
0.182247	-1.839134	1.183000
0.252388	-2.058088	1.229000
0.273909	-2.101520	1.384000
0.346598	-2.126576	1.430000
0.368090	-2.087181	1.586000
0.387603	-2.042111	1.632000
0.409282	-1.987955	1.678000
0.430374	-1.940094	1.724000
0.449677	-1.895666	1.769000
0.471203	-1.860600	1.816000
0.492360	-1.821850	1.861000
0.513557	-1.792050	1.907000
0.534811	-1.766527	1.953000
0.555805	-1.753786	1.999000
0.576333	-1.747975	2.044000
0.597082	-1.746325	2.090000
0.618298	-1.729577	2.136000
0.640173	-1.700817	2.182000
0.661247	-1.667048	2.228000
0.681359	-1.631836	2.274000
0.752064	-1.638852	2.319000
0.772270	-1.685339	2.475000
0.844537	-1.740685	2.521000
0.866526	-1.921762	2.676000
0.887827	-1.952856	2.722000
0.907991	-1.974479	2.768000
0.929259	-1.998152	2.814000
0.949357	-2.013421	2.859000
0.971035	-2.026451	2.905000
0.991664	-2.050100	2.951000
1.013865	-2.084590	2.997000
1.034369	-2.114962	3.042000
1.055105	-2.131142	3.088000
1.075986	-2.121848	3.135000
1.097289	-2.092317	3.180000
1.117745	-2.057166	3.226000
1.138932	-2.039928	3.272000
1.159144	-2.027202	3.318000
1.181135	-2.008737	3.364000
1.445896	-1.799379	3.410000
1.466773	-1.629226	3.989000
1.488078	-1.606600	4.035000
1.509252	-1.584075	4.080000
1.529930	-1.565734	4.126000
1.551369	-1.553791	4.172000
1.571258	-1.549545	4.218000
1.592897	-1.560025	4.263000
1.614119	-1.578266	4.309000
1.634837	-1.598238	4.355000
1.657466	-1.616831	4.401000
1.677283	-1.630188	4.447000
1.697880	-1.654663	4.493000
1.769566	-1.703276	4.539000
1.789747	-1.691749	4.695000
1.862822	-1.667128	4.741000
1.885093	-1.563301	4.897000
1.904928	-1.556632	4.943000
1.926133	-1.573764	4.989000
1.947233	-1.617945	5.035000
1.967386	-1.673412	5.081000
1.989650	-1.706094	5.127000
2.010187	-1.721744	5.173000
2.031666	-1.737162	5.218000
2.052810	-1.755220	5.264000
2.073114	-1.783728	5.310000
2.093995	-1.824485	5.355000
2.114386	-1.878827	5.401000
2.134912	-1.937884	5.447000
2.156691	-2.000811	5.493000
2.177705	-2.044419	5.539000
2.199636	-2.063829	5.585000
2.270095	-2.125803	5.630000
2.291526	-2.142799	5.786000
2.363518	-2.153928	5.832000
2.384145	-2.140248	5.989000
2.406020	-2.119060	6.034000
2.426531	-2.104311	6.080000
2.446518	-2.083752	6.126000
2.467592	-2.063717	6.172000
2.487654	-2.079983	6.218000
2.509199	-2.137869	6.263000
2.530803	-2.205963	6.309000
2.551667	-2.260128	6.355000
2.573363	-2.297802	6.400000
2.594411	-2.328114	6.447000
2.614825	-2.359036	6.492000
2.635709	-2.382880	6.538000
2.656856	-2.392037	6.584000
2.678139	-2.377842	6.630000
2.699616	-2.322692	6.676000
2.771270	-2.098179	6.721000
2.791297	-2.093601	6.878000
2.863325	-2.082393	6.923000
2.884432	-2.005259	7.080000
2.905485	-1.987536	7.126000
2.926786	-1.981933	7.171000
2.947518	-1.984447	7.217000
2.968307	-2.001053	7.263000
2.989147	-2.024665	7.309000
3.009562	-2.038103	7.355000
3.031559	-2.024817	7.401000
3.052465	-2.003547	7.447000
3.074200	-1.981070	7.492000
3.095197	-1.964039	7.538000
3.115844	-1.945344	7.584000
3.136062	-1.928087	7.630000
3.156362	-1.917179	7.675000
3.176801	-1.913866	7.721000
3.198533	-1.911594	7.767000
3.272916	-1.910671	7.813000
3.294167	-1.843908	7.974000
3.366274	-1.761335	8.020000
3.387106	-1.533191	8.176000
3.407449	-1.502563	8.222000
3.428899	-1.495587	8.268000
3.449088	-1.521067	8.314000
3.470755	-1.566515	8.360000
3.491578	-1.629415	8.406000
3.512897	-1.698306	8.452000
3.534478	-1.773704	8.498000
3.554912	-1.850702	8.544000
3.576210	-1.926253	8.589000
3.596736	-1.989818	8.635000
3.616953	-2.039509	8.680000
3.639112	-2.059301	8.726000
3.659942	-2.037069	8.772000
3.681213	-1.978445	8.818000
3.702322	-1.921347	8.864000
3.967848	-1.809436	8.910000
3.988297	-2.088395	9.489000
4.009945	-2.143832	9.535000
4.029738	-2.198458	9.581000
4.050770	-2.261819	9.626000
4.072181	-2.334084	9.672000
4.092947	-2.401504	9.718000
4.114062	-2.467399	9.763000
4.134422	-2.520295	9.809000
4.155696	-2.560216	9.855000
4.177148	-2.597255	9.901000
4.197742	-2.613138	9.947000
4.219588	-2.618041	9.992000
4.291769	-2.621513	10.038000
4.312762	-2.607185	10.194000
4.383800	-2.577271	10.240000
4.405301	-2.521980	10.396000
4.425597	-2.504405	10.442000
4.446826	-2.484219	10.488000
4.468056	-2.445302	10.534000
4.489950	-2.405785	10.580000
4.510886	-2.372997	10.626000
4.531314	-2.345816	10.672000
4.551939	-2.310512	10.718000
4.572981	-2.275629	10.763000
4.594029	-2.229547	10.809000
4.615479	-2.190767	10.855000
4.636582	-2.167713	10.901000
4.657874	-2.158493	10.946000
4.678562	-2.141780	10.992000
4.698972	-2.128424	11.038000
4.719663	-2.115662	11.083000
4.791631	-2.070976	11.129000
4.813286	-2.048138	11.285000
4.885218	-2.023429	11.331000
4.905388	-1.951436	11.488000
4.926494	-1.923180	11.533000
4.947642	-1.892268	11.579000
4.968046	-1.850328	11.625000
4.990019	-1.808120	11.671000
5.010961	-1.771370	11.717000
5.032058	-1.740145	11.762000
5.053053	-1.722676	11.809000
5.073784	-1.716784	11.854000
5.094736	-1.720287	11.900000
5.115596	-1.725871	11.946000
5.136657	-1.737453	11.992000
5.157524	-1.742181	12.038000
5.178884	-1.744702	12.084000
5.200045	-1.758311	12.129000
5.220790	-1.781068	12.175000
5.291849	-1.950371	12.221000
5.312561	-2.014091	12.377000
5.385073	-2.068668	12.422000
5.406264	-2.172603	12.579000
5.426913	-2.200263	12.625000
5.447615	-2.225529	12.670000
5.468874	-2.242032	12.716000
5.489152	-2.243799	12.762000
5.510156	-2.246969	12.808000
5.531720	-2.257998	12.854000
5.552925	-2.267083	12.900000
5.573967	-2.278895	12.945000
5.594937	-2.294001	12.991000
5.615603	-2.306085	13.037000
5.636565	-2.316232	13.082000
5.657500	-2.328562	13.128000
5.678833	-2.330425	13.174000
5.700258	-2.333256	13.220000
5.720744	-2.330506	13.265000
5.795865	-2.276239	13.311000
5.816966	-2.239080	13.475000
5.887986	-2.190737	13.520000
5.908883	-2.038275	13.677000
5.929765	-2.043003	13.722000
5.950758	-2.078496	13.768000
5.972131	-2.124801	13.814000
5.993797	-2.173262	13.860000
6.014070	-2.217959	13.906000
6.035424	-2.259775	13.952000
6.055960	-2.303103	13.998000
6.076785	-2.343696	14.043000
6.097938	-2.380185	14.089000
6.119190	-2.415881	14.135000
6.140659	-2.449184	14.181000
6.161857	-2.420292	14.227000
6.182266	-2.338324	14.272000
6.202909	-2.225661	14.318000
6.224510	-2.118233	14.364000
6.489612	-2.043349	14.410000
6.510661	-1.938105	14.989000
6.531569	-1.923588	15.035000
6.552517	-1.916215	15.081000
6.574429	-1.919530	15.126000
6.595596	-1.927885	15.172000
6.616267	-1.938095	15.218000
6.637455	-1.955696	15.264000
6.657738	-1.964716	15.309000
6.678590	-1.968612	15.355000
6.699792	-1.977835	15.401000
6.721671	-2.003769	15.447000
6.742809	-2.038915	15.493000
6.813683	-2.174093	15.539000
6.834820	-2.199169	15.695000
6.905385	-2.214149	15.740000
6.927096	-2.181251	15.896000
6.948231	-2.150969	15.942000
6.969987	-2.099826	15.988000
6.990588	-2.039459	16.034000
7.011596	-1.968865	16.080000
7.031734	-1.911918	16.126000
7.052651	-1.862921	16.172000
7.073467	-1.819144	16.217000
7.094800	-1.776783	16.263000
7.116479	-1.738417	16.309000
7.136650	-1.713723	16.354000
7.157606	-1.717026	16.400000
7.178355	-1.730966	16.446000
7.199325	-1.754147	16.492000
7.220602	-1.767105	16.538000
7.241730	-1.761395	16.584000
7.314056	-1.820472	16.629000
7.334898	-1.840666	16.786000
7.405532	-1.810509	16.831000
7.426771	-1.574717	16.988000
7.447758	-1.535371	17.034000
7.469180	-1.516150	17.079000
7.490156	-1.502785	17.125000
7.510690	-1.500719	17.171000
7.531749	-1.511890	17.217000
7.552050	-1.530819	17.263000
7.572825	-1.537295	17.308000
7.593547	-1.517861	17.354000
7.615104	-1.481292	17.399000
7.636552	-1.450047	17.445000
7.657597	-1.433552	17.491000
7.678645	-1.429414	17.537000
7.699395	-1.431008	17.583000
7.719713	-1.431442	17.628000
7.740338	-1.456291	17.674000
7.812660	-1.521259	17.720000
7.833530	-1.516514	17.876000
7.905546	-1.510361	17.922000
7.926644	-1.435914	18.078000
7.947310	-1.432346	18.124000
7.967946	-1.433653	18.170000
7.989500	-1.446277	18.215000
8.010915	-1.463085	18.261000
8.031850	-1.491200	18.307000
8.052455	-1.527473	18.352000
8.072881	-1.564062	18.398000
8.094224	-1.609290	18.444000
8.114894	-1.656638	18.490000
8.136054	-1.706707	18.536000
8.157658	-1.760740	18.582000
8.178291	-1.823460	18.627000
8.198712	-1.888093	18.673000
8.219688	-1.942527	18.719000
8.240551	-1.997292	18.765000
8.316192	-2.088862	18.810000
8.337578	-2.085713	18.975000
8.408880	-2.077861	19.021000
8.429903	-2.071550	19.177000
8.451159	-2.041082	19.223000
8.472326	-2.003067	19.269000
8.493462	-1.955166	19.314000
8.514190	-1.877357	19.360000
8.534814	-1.771964	19.406000
8.555382	-1.660363	19.451000
8.576103	-1.565975	19.497000
8.597743	-1.491145	19.543000
8.619246	-1.442492	19.589000
8.640316	-1.401384	19.635000
8.660397	-1.382506	19.680000
8.681617	-1.371255	19.726000
8.702281	-1.358964	19.772000
8.723478	-1.339479	19.818000
8.744803	-1.327331	19.863000
9.009609	-1.246056	19.909000
9.030504	-1.237785	20.489000
9.051936	-1.269715	20.535000
9.073449	-1.313458	20.581000
9.094510	-1.378314	20.627000
9.114985	-1.459017	20.672000
9.135136	-1.547304	20.718000
9.155736	-1.630277	20.764000
9.177094	-1.691249	20.810000
9.198654	-1.727696	20.855000
9.219832	-1.745634	20.901000
9.240534	-1.729364	20.947000
9.261408	-1.696880	20.993000
9.332664	-1.695166	21.039000
9.353259	-1.736057	21.195000
9.425909	-1.775003	21.241000
9.447428	-1.818998	21.397000
9.468171	-1.799631	21.443000
9.488657	-1.767064	21.488000
9.509324	-1.719807	21.534000
9.530022	-1.667016	21.580000
9.550699	-1.612123	21.625000
9.572691	-1.561507	21.671000
9.593120	-1.504733	21.717000
9.614749	-1.448659	21.763000
9.635300	-1.389083	21.809000
9.656425	-1.338354	21.854000
9.677413	-1.298434	21.900000
9.697838	-1.282834	21.946000
9.719144	-1.290254	21.991000
9.740441	-1.310087	22.037000
9.761308	-1.322421	22.083000
9.832237	-1.266364	22.129000
9.853741	-1.229686	22.284000
9.924892	-1.189485	22.331000
9.946571	-1.067060	22.486000
9.967064	-1.022172	22.532000
9.987473	-0.974599	22.578000
10.008431	-0.922822	22.623000
10.029361	-0.882127	22.669000
10.050236	-0.837815	22.715000
10.070916	-0.793031	22.761000
10.092644	-0.755875	22.807000
10.114141	-0.734171	22.852000
10.134982	-0.732796	22.898000
10.155785	-0.749710	22.944000
10.175830	-0.783309	22.990000
10.196257	-0.829840	23.036000
10.217398	-0.882843	23.082000
10.238874	-0.920404	23.127000
10.260322	-0.943353	23.173000
10.331977	-0.925091	23.219000
10.352679	-0.944743	23.375000
10.423929	-0.973503	23.421000
10.445132	-1.112543	23.577000
10.466859	-1.162978	23.623000
10.487977	-1.194621	23.668000
10.508942	-1.193019	23.714000
10.529549	-1.181430	23.760000
10.550065	-1.164908	23.806000
10.570732	-1.136812	23.852000
10.591983	-1.106154	23.898000
10.613408	-1.079664	23.944000
10.634745	-1.056456	23.989000
10.655492	-1.056051	24.035000
10.676549	-1.069008	24.081000
10.697330	-1.095185	24.127000
10.718656	-1.113351	24.172000
10.739440	-1.135161	24.218000
10.760702	-1.156775	24.264000
10.866854	-1.167700	24.310000
10.937443	-1.178684	24.542000
10.958676	-1.157301	24.698000
10.980218	-1.128479	24.744000
11.001037	-1.101349	24.790000
11.021626	-1.077585	24.836000
11.042574	-1.072719	24.881000
11.063079	-1.065410	24.927000
11.084141	-1.036229	24.973000
11.105007	-1.005430	25.018000
11.126092	-0.954445	25.064000
11.147142	-0.896834	25.110000
11.168466	-0.860858	25.156000
11.189095	-0.848983	25.201000
11.210084	-0.870978	25.248000
11.230688	-0.886886	25.293000
11.251718	-0.888311	25.339000
11.272651	-0.875433	25.385000
11.529488	-1.323339	25.431000
11.551080	-1.411756	25.989000
11.572495	-1.394660	26.035000
11.592606	-1.375537	26.081000
11.613428	-1.363641	26.127000
11.634384	-1.365526	26.173000
11.655392	-1.371650	26.219000
11.676699	-1.385100	26.265000
11.698074	-1.395948	26.311000
11.718495	-1.418953	26.357000
11.739320	-1.451122	26.402000
11.760350	-1.498650	26.448000
11.781075	-1.552614	26.494000
11.853460	-1.681602	26.540000
11.874476	-1.710861	26.696000
11.946610	-1.743475	26.742000
11.967049	-1.702691	26.898000
11.987341	-1.643115	26.944000
12.008145	-1.592782	26.990000
12.029227	-1.565914	27.035000
12.050141	-1.560402	27.081000
12.071802	-1.559094	27.127000
12.093343	-1.570063	27.173000
12.113874	-1.575983	27.219000
12.134600	-1.560331	27.264000
12.155776	-1.546309	27.310000
12.176917	-1.552937	27.356000
12.197726	-1.573904	27.402000
12.219079	-1.589456	27.448000
12.240124	-1.570885	27.493000
12.261362	-1.519007	27.539000
12.282194	-1.454407	27.585000
12.352516	-1.409403	27.631000
12.373839	-1.415263	27.786000
12.445820	-1.426990	27.832000
12.466753	-1.386579	27.988000
12.488044	-1.378878	28.034000
12.508648	-1.401110	28.080000
12.529141	-1.428392	28.126000
12.550722	-1.442475	28.172000
12.571578	-1.445281	28.218000
12.593154	-1.429018	28.263000
12.614407	-1.414138	28.309000
12.635267	-1.413851	28.355000
12.655314	-1.408460	28.401000
12.676032	-1.392409	28.446000
12.697126	-1.376766	28.492000
12.717888	-1.373576	28.538000
12.740081	-1.378928	28.583000
12.760746	-1.387543	28.629000
12.781373	-1.407111	28.675000
12.852250	-1.542962	28.721000
12.873045	-1.607021	28.876000
12.944848	-1.648537	28.922000
12.966302	-1.496115	29.078000
12.987141	-1.420271	29.124000
13.007745	-1.345481	29.170000
13.029015	-1.282835	29.216000
13.049691	-1.240845	29.262000
13.070516	-1.209317	29.308000
13.091828	-1.194570	29.353000
13.113476	-1.205501	29.399000
13.134618	-1.246494	29.445000
13.155758	-1.304957	29.491000
13.176479	-1.364774	29.537000
13.196867	-1.419651	29.583000
13.218005	-1.467198	29.628000
13.238430	-1.507306	29.674000
13.260766	-1.542039	29.720000
13.282257	-1.563288	29.766000
13.356111	-1.565197	29.811000
13.377507	-1.558191	29.975000
13.449763	-1.553173	30.021000
13.470028	-1.529449	30.177000
13.490886	-1.482154	30.223000
13.511363	-1.445019	30.269000
13.532716	-1.417399	30.315000
13.553931	-1.400550	30.360000
13.575060	-1.392157	30.406000
13.595991	-1.399964	30.452000
13.616650	-1.414987	30.498000
13.637666	-1.421406	30.544000
13.658699	-1.432436	30.589000
13.680006	-1.439735	30.635000
13.700581	-1.435691	30.681000
13.721760	-1.433601	30.727000
13.743094	-1.457305	30.773000
13.763765	-1.484143	30.819000
13.784410	-1.523690	30.864000
14.050701	-1.401878	30.910000
14.071285	-1.416429	31.489000
14.092528	-1.398411	31.536000
14.113877	-1.374070	31.581000
14.134213	-1.348160	31.627000
14.155523	-1.335914	31.673000
14.177051	-1.321640	31.719000
14.198173	-1.297708	31.765000
14.218794	-1.278957	31.810000
14.239328	-1.253611	31.856000
14.260652	-1.217841	31.902000
14.281022	-1.176031	31.948000
14.301746	-1.131764	31.993000
14.374511	-1.046137	32.039000
14.395322	-1.062053	32.195000
14.465598	-1.079472	32.241000
14.487303	-1.107420	32.397000
14.508390	-1.101611	32.443000
14.529080	-1.084752	32.489000
14.550522	-1.058666	32.535000
14.571373	-1.024367	32.580000
14.592251	-0.993295	32.626000
14.613024	-0.957255	32.672000
14.633666	-0.931915	32.718000
14.654491	-0.897414	32.763000
14.675631	-0.862717	32.809000
14.697386	-0.833056	32.855000
14.718552	-0.800843	32.901000
14.739649	-0.769653	32.946000
14.759388	-0.734130	32.992000
14.779910	-0.697590	33.038000
14.800879	-0.664947	33.084000
14.872575	-0.589315	33.130000
14.894773	-0.572992	33.285000
14.966215	-0.569645	33.331000
14.986267	-0.531617	33.487000
15.007513	-0.507453	33.533000
15.028381	-0.494001	33.579000
15.049623	-0.484706	33.625000
15.071063	-0.476113	33.671000
15.092167	-0.475503	33.716000
15.112152	-0.461879	33.762000
15.132749	-0.451642	33.808000
15.153923	-0.470019	33.854000
15.174556	-0.495376	33.900000
15.196187	-0.502161	33.945000
15.217141	-0.468184	33.991000
15.238218	-0.422398	34.037000
15.259082	-0.404953	34.083000
15.279771	-0.428824	34.128000
15.300824	-0.492716	34.174000
15.372463	-0.646029	34.220000
15.393721	-0.668118	34.376000
15.465636	-0.717947	34.422000
15.486211	-0.974306	34.579000
15.507089	-1.037506	34.624000
15.528378	-1.099157	34.670000
15.549227	-1.162978	34.716000
15.569928	-1.213164	34.762000
15.590815	-1.251594	34.808000
15.612618	-1.265334	34.853000
15.633409	-1.260350	34.899000
15.653961	-1.253953	34.945000
15.675102	-1.261545	34.991000
15.695414	-1.280984	35.037000
15.716742	-1.318529	35.082000
15.737904	-1.344900	35.128000
15.759598	-1.348383	35.174000
15.780384	-1.327522	35.219000
15.801154	-1.300499	35.265000
15.876695	-1.026629	35.311000
15.897146	-0.950678	35.475000
15.968953	-0.908095	35.521000
15.990108	-1.035260	35.677000
16.010983	-1.066465	35.723000
16.032496	-1.074858	35.769000
16.053573	-1.066980	35.815000
16.075109	-1.047000	35.861000
16.095726	-1.018185	35.907000
16.116660	-0.982286	35.952000
16.137734	-0.952440	35.998000
16.158054	-0.941785	36.044000
16.178360	-0.937571	36.090000
16.200023	-0.924758	36.136000
16.220888	-0.891714	36.181000
16.241737	-0.864169	36.227000
16.262887	-0.863680	36.273000
16.283391	-0.865927	36.318000
16.303875	-0.871558	36.364000
16.570376	-0.997146	36.410000
16.591196	-1.017210	36.990000
16.611999	-1.015296	37.036000
16.633021	-1.006454	37.082000
16.654738	-0.992452	37.127000
16.676061	-0.974764	37.173000
16.696563	-0.962963	37.219000
16.717631	-0.975229	37.265000
16.738787	-1.012682	37.311000
16.759229	-1.053245	37.356000
16.779919	-1.073167	37.402000
16.801492	-1.083313	37.448000
16.822967	-1.086740	37.494000
16.894339	-1.039040	37.539000
16.915178	-0.993855	37.695000
16.986339	-0.956614	37.741000
17.007284	-0.901352	37.897000
17.029039	-0.898150	37.943000
17.050063	-0.901694	37.989000
17.070995	-0.878604	38.035000
17.091218	-0.843797	38.081000
17.111954	-0.824239	38.127000
17.133212	-0.818823	38.172000
17.153882	-0.808459	38.218000
17.175108	-0.788716	38.264000
17.196739	-0.774452	38.310000
17.217526	-0.785516	38.355000
17.238133	-0.811221	38.401000
17.258903	-0.826942	38.447000
17.280081	-0.814493	38.492000
17.300997	-0.775919	38.538000
17.322152	-0.755662	38.584000
17.393911	-0.662768	38.630000
17.414027	-0.653349	38.785000
17.485408	-0.647509	38.831000
17.506148	-0.749992	38.987000
17.527415	-0.808601	39.032000
17.549605	-0.885549	39.078000
17.569697	-0.953394	39.124000
17.590496	-0.979232	39.170000
17.611104	-0.973528	39.216000
17.632189	-0.940570	39.262000
17.653030	-0.908479	39.307000
17.674734	-0.871215	39.353000
17.695942	-0.831487	39.399000
17.716655	-0.781811	39.445000
17.737350	-0.716933	39.491000
17.758017	-0.661762	39.537000
17.779260	-0.622892	39.582000
17.800322	-0.573713	39.628000
17.821613	-0.521219	39.674000
17.894202	-0.411280	39.720000
17.914485	-0.439787	39.875000
17.985547	-0.488703	39.921000
18.006994	-0.683013	40.078000
18.027547	-0.727976	40.124000
18.048248	-0.762910	40.170000
18.070461	-0.776699	40.216000
18.091362	-0.772245	40.261000
18.101068	-0.746898	40.307000
18.133129	-0.734039	40.353000
18.153548	-0.706756	40.399000
